EEG 1,EEG 2,EEG 3,EEG 4,EEG 5,EEG 6,EEG 7,EEG 8,Accelerometer X,Accelerometer Y,Accelerometer Z,Gyroscope X,Gyroscope Y,Gyroscope Z,Battery Level,Counter,Validation Indicator
-9.897,0.432,3.251,-7.602,-2.333,9.244,-1.006,-6.522,-0.031,1.011,-0.135,-2.014,0.488,1.465,73.333,30633.000,1.000
-8.017,1.176,-1.049,-5.426,-1.139,4.714,-1.225,-12.646,-0.032,1.011,-0.137,-2.106,0.336,1.526,73.333,30634.000,1.000
-4.246,1.493,-5.227,-1.384,1.431,-0.182,-1.634,-17.468,-0.032,1.012,-0.137,-2.167,0.458,1.526,73.333,30635.000,1.000
0.840,1.437,-8.785,3.898,5.187,-4.711,-1.688,-19.957,-0.032,1.011,-0.136,-2.106,0.366,1.465,73.333,30636.000,1.000
6.678,2.038,-11.369,9.257,9.272,-7.796,-0.076,-19.635,-0.032,1.009,-0.136,-2.136,0.397,1.556,73.333,30637.000,1.000
12.286,3.875,-12.699,13.689,12.777,-9.157,3.426,-16.973,-0.034,1.010,-0.137,-2.136,0.244,1.648,73.333,30638.000,1.000
16.246,6.061,-12.816,16.631,15.055,-9.706,7.112,-13.244,-0.031,1.009,-0.139,-2.045,0.275,1.526,73.333,30639.000,1.000
17.711,7.295,-12.118,17.895,15.767,-10.394,9.116,-9.577,-0.031,1.009,-0.137,-2.014,0.275,1.526,73.333,30640.000,1.000
17.305,7.541,-11.158,17.574,14.898,-11.004,9.697,-6.091,-0.031,1.011,-0.133,-2.075,0.244,1.587,73.333,30641.000,1.000
16.401,7.661,-10.610,15.806,12.579,-10.722,10.765,-2.168,-0.028,1.010,-0.133,-2.106,0.275,1.587,73.333,30642.000,1.000
15.587,7.723,-11.059,12.734,9.021,-9.594,13.184,2.634,-0.028,1.008,-0.133,-2.258,0.275,1.648,73.333,30643.000,1.000
14.411,6.711,-12.541,8.849,4.759,-8.658,15.592,8.167,-0.029,1.005,-0.136,-2.136,0.214,1.678,73.333,30644.000,1.000
12.479,3.940,-14.511,5.010,0.578,-8.737,16.097,13.790,-0.031,1.004,-0.135,-2.258,0.153,1.709,73.333,30645.000,1.000
10.250,0.102,-16.225,1.891,-2.981,-9.587,14.396,18.554,-0.031,1.003,-0.137,-2.136,0.122,1.648,73.333,30646.000,1.000
8.515,-3.477,-17.004,-0.396,-5.860,-10.309,11.645,21.459,-0.032,1.004,-0.137,-2.106,0.061,1.617,73.333,30647.000,1.000
7.222,-6.482,-16.387,-2.188,-8.253,-10.326,8.477,21.736,-0.030,1.004,-0.137,-2.075,-0.031,1.648,73.333,30648.000,1.000
5.337,-9.874,-14.221,-3.889,-10.204,-9.557,4.154,19.291,-0.031,1.003,-0.137,-2.014,0.000,1.587,73.333,30649.000,1.000
2.204,-14.234,-10.547,-5.577,-11.370,-7.720,-1.764,15.176,-0.030,1.004,-0.137,-2.045,-0.122,1.526,73.333,30650.000,1.000
-1.329,-18.313,-5.484,-6.951,-11.209,-3.976,-7.539,11.369,-0.028,1.007,-0.134,-2.167,-0.214,1.556,73.333,30651.000,1.000
-3.604,-19.953,0.558,-7.718,-9.510,2.200,-10.181,9.490,-0.029,1.007,-0.135,-2.136,-0.183,1.495,73.333,30652.000,1.000
-3.992,-18.558,6.598,-8.057,-6.797,9.743,-8.693,9.358,-0.030,1.010,-0.136,-2.228,-0.244,1.495,73.333,30653.000,1.000
-3.550,-15.862,11.436,-8.532,-4.059,16.228,-5.405,9.135,-0.028,1.010,-0.137,-2.319,-0.275,1.465,73.333,30654.000,1.000
-3.658,-13.828,14.574,-9.416,-1.887,19.860,-3.274,7.183,-0.029,1.013,-0.139,-2.411,-0.336,1.404,73.333,30655.000,1.000
-4.369,-12.418,16.652,-10.135,0.127,21.051,-2.525,3.653,-0.029,1.015,-0.137,-2.533,-0.458,1.434,73.333,30656.000,1.000
-4.339,-9.784,18.986,-9.437,3.178,21.840,-0.704,0.213,-0.029,1.019,-0.139,-2.655,-0.549,1.465,73.333,30657.000,1.000
-2.375,-4.424,22.581,-6.289,8.283,23.729,4.202,-1.701,-0.028,1.020,-0.139,-2.838,-0.549,1.465,73.333,30658.000,1.000
1.163,3.192,27.312,-0.802,15.291,26.149,11.337,-2.270,-0.026,1.018,-0.137,-2.991,-0.336,1.373,73.333,30659.000,1.000
4.843,11.284,31.942,5.782,22.873,27.224,17.961,-2.927,-0.027,1.016,-0.138,-3.204,-0.458,1.434,73.333,30660.000,1.000
7.749,18.538,34.902,11.988,29.453,25.674,22.273,-4.934,-0.027,1.016,-0.139,-3.235,-0.549,1.404,73.333,30661.000,1.000
9.790,24.277,34.842,16.734,33.942,21.348,24.172,-8.572,-0.030,1.014,-0.140,-3.204,-0.519,1.282,73.333,30662.000,1.000
10.435,27.067,30.690,19.120,35.656,14.243,23.350,-13.417,-0.029,1.016,-0.141,-3.235,-0.549,1.251,73.333,30663.000,1.000
8.344,24.798,22.103,18.344,34.179,4.212,18.427,-18.729,-0.028,1.017,-0.139,-3.296,-0.549,1.190,73.333,30664.000,1.000
2.965,17.063,10.340,14.390,29.798,-7.897,8.942,-23.313,-0.028,1.015,-0.137,-3.418,-0.641,1.129,73.333,30665.000,1.000
-4.144,6.660,-1.784,8.521,23.794,-19.553,-2.698,-25.608,-0.029,1.013,-0.136,-3.479,-0.580,1.099,73.333,30666.000,1.000
-10.396,-2.244,-11.426,2.531,17.738,-27.961,-12.460,-24.723,-0.029,1.012,-0.139,-3.448,-0.641,0.977,73.333,30667.000,1.000
-14.383,-7.334,-17.280,-2.468,12.483,-32.201,-17.941,-21.398,-0.029,1.009,-0.140,-3.479,-0.671,0.854,73.333,30668.000,1.000
-16.449,-9.061,-19.685,-6.278,8.060,-33.425,-19.721,-17.380,-0.031,1.009,-0.139,-3.265,-0.763,0.793,73.333,30669.000,1.000
-17.453,-8.881,-19.741,-9.034,4.242,-33.099,-19.614,-13.794,-0.032,1.008,-0.138,-3.326,-0.854,0.641,73.333,30670.000,1.000
-17.619,-7.447,-18.562,-10.810,1.008,-31.473,-18.353,-10.248,-0.029,1.009,-0.136,-3.204,-0.977,0.610,73.333,30671.000,1.000
-16.706,-4.676,-16.982,-11.613,-1.311,-27.849,-15.448,-5.424,-0.028,1.008,-0.135,-3.082,-0.916,0.580,73.333,30672.000,1.000
-15.034,-1.091,-15.476,-11.579,-2.216,-22.123,-10.969,1.407,-0.030,1.008,-0.136,-2.960,-1.007,0.519,73.333,30673.000,1.000
-13.863,1.713,-14.107,-11.088,-1.494,-15.512,-6.535,9.382,-0.031,1.007,-0.139,-2.838,-1.129,0.641,73.333,30674.000,1.000
-14.348,2.332,-12.551,-10.599,0.498,-9.456,-4.013,16.626,-0.034,1.008,-0.138,-2.594,-1.129,0.671,73.333,30675.000,1.000
-16.164,1.059,-10.270,-10.222,3.088,-4.200,-3.605,21.710,-0.033,1.008,-0.137,-2.472,-1.129,0.671,73.333,30676.000,1.000
-17.585,-0.418,-6.859,-9.579,5.767,1.084,-3.930,24.434,-0.031,1.006,-0.136,-2.441,-1.343,0.610,73.333,30677.000,1.000
-17.161,-0.989,-2.439,-8.238,8.311,6.874,-3.999,25.336,-0.031,1.006,-0.135,-2.380,-1.434,0.549,73.333,30678.000,1.000
-15.038,-1.220,2.292,-6.174,10.576,12.478,-4.307,24.820,-0.032,1.004,-0.132,-2.289,-1.373,0.549,73.333,30679.000,1.000
-12.437,-2.091,6.532,-3.670,12.475,16.819,-5.469,22.980,-0.031,1.002,-0.137,-2.258,-1.373,0.702,73.333,30680.000,1.000
-10.261,-3.299,9.771,-1.032,14.009,19.534,-6.550,19.865,-0.029,1.002,-0.138,-1.953,-1.495,0.671,73.333,30681.000,1.000
-8.668,-3.469,11.822,1.328,15.090,20.929,-5.739,15.587,-0.026,1.003,-0.136,-1.953,-1.495,0.824,73.333,30682.000,1.000
-7.580,-1.705,12.967,2.864,15.589,21.297,-2.573,10.371,-0.026,1.000,-0.136,-1.801,-1.404,0.854,73.333,30683.000,1.000
-6.916,1.599,14.038,3.323,15.630,20.747,1.360,4.640,-0.026,1.002,-0.136,-1.770,-1.343,0.946,73.333,30684.000,1.000
-6.318,5.456,15.820,3.046,15.623,19.520,4.161,-1.041,-0.028,1.001,-0.136,-1.617,-1.404,1.099,73.333,30685.000,1.000
-5.068,9.434,18.165,2.753,15.922,18.111,5.667,-6.099,-0.029,1.001,-0.137,-1.465,-1.495,1.343,73.333,30686.000,1.000
-2.620,13.682,19.896,3.084,16.585,16.823,7.316,-10.148,-0.028,1.003,-0.137,-1.251,-1.373,1.343,73.333,30687.000,1.000
0.761,17.946,19.807,4.420,17.587,15.281,10.114,-13.116,-0.028,1.004,-0.137,-1.160,-1.312,1.434,73.333,30688.000,1.000
4.101,21.222,17.734,6.874,19.018,12.696,13.396,-15.094,-0.031,1.005,-0.138,-1.068,-1.312,1.465,73.333,30689.000,1.000
6.494,22.577,14.362,10.048,20.700,8.595,15.827,-16.237,-0.030,1.004,-0.139,-1.129,-1.312,1.526,73.333,30690.000,1.000
7.742,22.003,10.259,12.971,21.838,3.251,17.088,-16.752,-0.032,1.006,-0.143,-0.946,-1.434,1.526,73.333,30691.000,1.000
8.285,20.466,5.795,14.818,21.663,-2.343,18.098,-16.585,-0.030,1.005,-0.140,-0.885,-1.373,1.526,73.333,30692.000,1.000
8.435,18.964,1.683,15.539,20.212,-7.139,19.425,-15.337,-0.029,1.004,-0.139,-0.793,-1.373,1.587,73.333,30693.000,1.000
7.548,17.257,-1.586,15.258,17.788,-11.143,19.753,-13.035,-0.030,1.005,-0.141,-0.763,-1.251,1.495,73.333,30694.000,1.000
4.414,14.011,-4.775,13.460,13.973,-15.433,16.730,-10.623,-0.030,1.003,-0.142,-0.732,-1.373,1.495,73.333,30695.000,1.000
-1.137,8.601,-9.401,9.473,8.005,-20.624,9.692,-9.043,-0.031,1.005,-0.143,-0.610,-1.404,1.404,73.333,30696.000,1.000
-7.585,1.996,-16.117,3.444,-0.067,-25.900,0.716,-8.136,-0.030,1.008,-0.141,-0.671,-1.434,1.190,73.333,30697.000,1.000
-13.018,-4.404,-23.843,-3.523,-8.949,-29.760,-7.343,-6.743,-0.032,1.013,-0.141,-0.732,-1.434,1.099,73.333,30698.000,1.000
-16.526,-9.795,-30.148,-9.844,-16.556,-31.054,-12.910,-3.627,-0.031,1.017,-0.141,-0.854,-1.495,0.885,73.333,30699.000,1.000
-18.209,-13.559,-32.536,-14.068,-20.988,-29.076,-15.481,1.747,-0.030,1.021,-0.141,-0.977,-1.465,0.793,73.333,30700.000,1.000
-18.586,-14.886,-30.042,-15.621,-21.647,-23.453,-14.658,8.869,-0.028,1.022,-0.143,-1.129,-1.465,0.732,73.333,30701.000,1.000
-18.536,-13.568,-23.861,-15.232,-19.625,-14.593,-10.530,16.296,-0.025,1.023,-0.143,-1.404,-1.495,0.549,73.333,30702.000,1.000
-19.296,-10.843,-16.253,-14.398,-16.789,-4.011,-4.722,22.336,-0.025,1.023,-0.143,-1.617,-1.465,0.366,73.333,30703.000,1.000
-21.716,-8.731,-8.752,-14.126,-14.282,6.322,-0.035,26.053,-0.024,1.022,-0.142,-1.831,-1.465,0.305,73.333,30704.000,1.000
-25.250,-8.232,-1.494,-14.206,-11.931,15.218,1.674,27.789,-0.023,1.024,-0.142,-2.167,-1.251,0.366,73.333,30705.000,1.000
-28.076,-8.449,5.940,-13.772,-8.993,22.826,1.076,28.640,-0.021,1.021,-0.139,-2.258,-1.129,0.427,73.333,30706.000,1.000
-28.595,-7.771,13.589,-12.333,-5.134,29.853,0.308,29.408,-0.021,1.021,-0.141,-2.502,-1.007,0.366,73.333,30707.000,1.000
-26.873,-5.677,21.110,-10.121,-0.630,36.263,0.361,29.974,-0.021,1.021,-0.141,-2.655,-1.007,0.397,73.333,30708.000,1.000
-24.531,-3.142,28.023,-7.740,3.899,40.809,0.032,29.347,-0.020,1.018,-0.142,-2.808,-0.824,0.427,73.333,30709.000,1.000
-23.133,-1.311,33.709,-5.629,7.754,42.026,-2.252,26.265,-0.020,1.017,-0.141,-2.960,-0.641,0.580,73.333,30710.000,1.000
-22.667,-0.015,37.680,-3.688,10.513,39.740,-5.900,20.240,-0.021,1.011,-0.141,-3.082,-0.397,0.610,73.333,30711.000,1.000
-21.794,2.004,39.879,-1.422,12.219,35.309,-8.268,12.166,-0.021,1.009,-0.140,-3.113,-0.275,0.641,73.333,30712.000,1.000
-19.392,5.470,40.581,1.561,13.246,30.377,-7.432,3.857,-0.021,1.008,-0.141,-3.113,-0.031,0.885,73.333,30713.000,1.000
-15.291,9.975,40.271,5.408,14.150,25.985,-3.857,-2.837,-0.021,1.008,-0.140,-3.235,-0.061,0.946,73.333,30714.000,1.000
-9.625,15.085,39.561,10.153,15.476,22.765,1.004,-6.657,-0.022,1.007,-0.139,-3.204,-0.031,1.099,73.333,30715.000,1.000
-2.523,20.877,38.553,15.372,17.121,20.814,6.498,-7.533,-0.026,1.004,-0.135,-3.296,0.183,1.160,73.333,30716.000,1.000
5.016,26.626,36.093,19.638,17.761,18.910,12.222,-7.081,-0.028,1.002,-0.136,-3.326,0.244,1.190,73.333,30717.000,1.000
10.762,29.915,30.470,21.122,15.586,14.747,16.618,-7.876,-0.028,1.002,-0.133,-3.296,0.244,1.129,73.333,30718.000,1.000
12.782,28.380,21.369,19.254,10.087,6.856,17.663,-11.365,-0.030,0.999,-0.135,-3.265,0.122,1.129,73.333,30719.000,1.000
11.350,22.331,10.564,15.421,2.777,-3.751,15.112,-16.508,-0.032,1.000,-0.137,-3.204,0.092,1.068,73.333,30720.000,1.000
9.020,15.013,0.580,11.883,-3.906,-13.991,11.392,-20.570,-0.032,1.001,-0.135,-3.052,0.092,1.038,73.333,30721.000,1.000
8.586,9.979,-6.891,10.256,-8.108,-20.849,9.644,-21.034,-0.031,1.002,-0.135,-2.991,0.122,0.854,73.333,30722.000,1.000
10.788,8.116,-11.538,10.784,-9.339,-23.489,10.695,-17.092,-0.031,1.003,-0.135,-2.960,0.061,0.946,73.333,30723.000,1.000
13.941,7.307,-14.143,12.484,-8.506,-23.505,12.265,-9.968,-0.029,1.004,-0.132,-3.082,0.061,0.824,73.333,30724.000,1.000
15.730,5.024,-15.812,13.860,-7.349,-23.171,11.465,-2.070,-0.029,1.004,-0.132,-3.021,0.031,0.702,73.333,30725.000,1.000
15.180,0.936,-17.251,13.681,-7.503,-23.515,7.801,4.347,-0.028,1.005,-0.132,-2.960,-0.122,0.702,73.333,30726.000,1.000
12.847,-3.256,-18.531,11.426,-9.672,-24.031,3.338,8.174,-0.029,1.005,-0.134,-2.960,0.031,0.702,73.333,30727.000,1.000
9.757,-5.864,-19.081,7.556,-13.182,-23.594,0.362,9.808,-0.029,1.006,-0.136,-2.930,0.000,0.763,73.333,30728.000,1.000
6.755,-6.322,-17.740,3.543,-16.136,-21.076,-0.263,10.855,-0.028,1.005,-0.136,-2.960,0.092,0.763,73.333,30729.000,1.000
4.585,-4.633,-13.377,1.168,-16.461,-15.470,1.404,13.130,-0.028,1.007,-0.135,-2.930,0.031,0.702,73.333,30730.000,1.000
3.897,-0.762,-5.886,1.350,-13.265,-6.199,5.375,17.510,-0.027,1.007,-0.135,-2.838,0.061,0.824,73.333,30731.000,1.000
4.752,4.855,3.389,3.550,-7.410,6.158,11.410,23.380,-0.028,1.009,-0.135,-2.869,0.092,0.916,73.333,30732.000,1.000
6.115,10.454,12.220,6.197,-0.961,19.228,17.799,28.842,-0.029,1.008,-0.137,-2.777,0.092,1.129,73.333,30733.000,1.000
6.325,13.440,18.644,7.742,3.973,29.473,21.403,31.644,-0.026,1.008,-0.135,-2.655,0.031,1.099,73.333,30734.000,1.000
4.586,12.481,21.931,7.570,6.268,34.352,19.932,30.481,-0.027,1.007,-0.135,-2.625,0.000,1.251,73.333,30735.000,1.000
1.900,8.952,22.736,6.158,6.110,34.065,14.214,25.645,-0.028,1.008,-0.138,-2.655,0.061,1.465,73.333,30736.000,1.000
0.173,5.819,22.548,4.616,4.729,31.021,7.631,18.702,-0.030,1.008,-0.140,-2.686,-0.031,1.617,73.333,30737.000,1.000
0.388,5.047,22.831,4.024,3.724,27.755,3.162,11.662,-0.029,1.009,-0.138,-2.625,0.000,1.526,73.333,30738.000,1.000
1.722,6.123,24.037,4.619,3.897,25.141,1.047,5.838,-0.027,1.010,-0.138,-2.563,0.061,1.556,73.333,30739.000,1.000
2.494,6.965,25.164,5.461,4.526,22.271,-0.599,1.030,-0.028,1.009,-0.138,-2.472,0.000,1.587,73.333,30740.000,1.000
1.850,6.114,24.503,5.182,4.033,17.982,-3.189,-3.986,-0.030,1.010,-0.136,-2.502,-0.122,1.526,73.333,30741.000,1.000
0.263,3.730,20.880,3.039,1.326,12.065,-6.313,-10.252,-0.033,1.011,-0.135,-2.502,-0.275,1.465,73.333,30742.000,1.000
-1.376,0.692,14.389,-0.627,-3.465,5.003,-8.854,-17.786,-0.032,1.010,-0.139,-2.441,-0.397,1.495,73.333,30743.000,1.000
-2.409,-2.277,6.354,-4.551,-9.103,-2.565,-10.334,-25.410,-0.032,1.008,-0.139,-2.411,-0.458,1.404,73.333,30744.000,1.000
-2.135,-4.342,-1.422,-7.173,-14.027,-9.731,-10.617,-31.248,-0.031,1.009,-0.138,-2.380,-0.397,1.404,73.333,30745.000,1.000
0.285,-4.399,-7.783,-7.553,-17.370,-15.354,-9.126,-33.743,-0.031,1.010,-0.138,-2.350,-0.488,1.251,73.333,30746.000,1.000
5.027,-2.074,-12.798,-5.983,-19.436,-18.905,-5.347,-32.579,-0.026,1.012,-0.137,-2.319,-0.641,1.129,73.333,30747.000,1.000
10.762,1.156,-17.350,-3.820,-21.300,-21.297,-0.280,-28.936,-0.026,1.011,-0.134,-2.289,-0.580,1.129,73.333,30748.000,1.000
15.035,2.417,-22.317,-2.702,-24.006,-24.389,3.376,-24.737,-0.023,1.012,-0.135,-2.411,-0.519,1.160,73.333,30749.000,1.000
15.923,-0.356,-28.061,-3.621,-27.927,-29.227,3.389,-21.258,-0.023,1.010,-0.137,-2.350,-0.549,1.160,73.333,30750.000,1.000
13.522,-6.513,-34.302,-6.410,-32.585,-34.837,0.207,-18.342,-0.023,1.010,-0.139,-2.319,-0.458,1.251,73.333,30751.000,1.000
9.656,-13.278,-40.184,-9.946,-36.924,-39.004,-3.605,-14.904,-0.024,1.011,-0.137,-2.319,-0.458,1.190,73.333,30752.000,1.000
6.099,-18.333,-44.498,-12.901,-39.877,-40.216,-6.161,-10.089,-0.026,1.010,-0.137,-2.167,-0.488,1.251,73.333,30753.000,1.000
3.283,-21.566,-46.197,-14.545,-40.906,-38.698,-7.890,-4.092,-0.027,1.010,-0.138,-2.167,-0.488,1.282,73.333,30754.000,1.000
0.884,-24.026,-44.779,-14.907,-40.102,-35.507,-10.083,2.054,-0.027,1.010,-0.140,-2.197,-0.549,1.282,73.333,30755.000,1.000
-0.830,-25.706,-40.308,-14.257,-37.758,-30.987,-12.352,7.470,-0.026,1.008,-0.142,-2.228,-0.610,1.373,73.333,30756.000,1.000
-0.941,-25.238,-33.389,-12.716,-34.063,-24.648,-12.577,11.976,-0.024,1.007,-0.140,-2.167,-0.702,1.373,73.333,30757.000,1.000
0.975,-21.716,-25.072,-10.384,-29.206,-16.375,-9.519,15.711,-0.024,1.006,-0.139,-2.106,-0.610,1.434,73.333,30758.000,1.000
4.176,-16.003,-16.485,-7.680,-23.672,-7.148,-4.581,18.549,-0.026,1.006,-0.139,-1.953,-0.610,1.617,73.333,30759.000,1.000
7.244,-10.035,-8.570,-5.445,-18.404,1.543,-0.393,19.979,-0.026,1.006,-0.141,-1.984,-0.580,1.556,73.333,30760.000,1.000
9.113,-5.210,-1.989,-4.512,-14.434,8.797,1.941,19.583,-0.027,1.010,-0.137,-1.892,-0.580,1.526,73.333,30761.000,1.000
9.540,-1.770,3.054,-5.078,-12.181,14.640,3.503,17.522,-0.030,1.010,-0.137,-1.831,-0.702,1.434,73.333,30762.000,1.000
8.668,0.365,6.811,-6.615,-11.190,19.296,5.569,14.394,-0.032,1.010,-0.139,-1.770,-0.732,1.343,73.333,30763.000,1.000
6.567,0.795,9.706,-8.275,-10.540,22.561,7.694,10.786,-0.032,1.010,-0.141,-1.831,-0.916,1.221,73.333,30764.000,1.000
3.561,-0.708,12.064,-9.273,-9.416,24.126,8.342,7.108,-0.030,1.010,-0.141,-1.892,-0.977,1.190,73.333,30765.000,1.000
0.686,-3.097,13.984,-9.104,-7.505,24.091,7.058,3.560,-0.030,1.010,-0.141,-1.801,-0.977,1.038,73.333,30766.000,1.000
-0.829,-4.527,15.318,-7.695,-5.063,22.719,5.015,0.045,-0.031,1.009,-0.139,-1.801,-1.068,1.099,73.333,30767.000,1.000
-0.701,-4.116,15.789,-5.393,-2.639,19.820,3.277,-3.851,-0.032,1.007,-0.139,-1.831,-1.221,1.099,73.333,30768.000,1.000
0.185,-2.597,15.226,-2.724,-0.717,14.866,1.498,-8.684,-0.032,1.009,-0.139,-1.831,-1.312,1.007,73.333,30769.000,1.000
0.978,-0.888,13.802,-0.025,0.493,8.007,-0.907,-14.724,-0.030,1.010,-0.140,-1.740,-1.434,1.007,73.333,30770.000,1.000
2.042,1.378,12.037,2.738,1.113,0.752,-2.911,-21.450,-0.029,1.011,-0.139,-1.862,-1.556,1.038,73.333,30771.000,1.000
4.519,5.255,10.440,5.713,1.429,-4.863,-2.393,-27.599,-0.030,1.013,-0.140,-1.923,-1.587,1.038,73.333,30772.000,1.000
8.684,10.565,9.073,8.694,1.541,-7.981,1.214,-31.952,-0.030,1.013,-0.138,-1.953,-1.556,1.068,73.333,30773.000,1.000
13.060,15.132,7.327,10.883,1.037,-9.639,5.622,-34.015,-0.026,1.014,-0.138,-1.984,-1.617,1.007,73.333,30774.000,1.000
15.513,16.443,4.208,11.130,-0.964,-11.552,7.773,-33.862,-0.025,1.012,-0.142,-2.014,-1.648,0.977,73.333,30775.000,1.000
15.225,14.010,-0.861,8.659,-5.140,-14.256,7.016,-31.492,-0.024,1.011,-0.139,-2.106,-1.678,1.129,73.333,30776.000,1.000
13.136,9.538,-7.469,3.755,-11.157,-16.879,5.286,-26.708,-0.022,1.011,-0.140,-2.136,-1.648,1.160,73.333,30777.000,1.000
10.425,4.750,-14.549,-2.304,-17.645,-18.703,4.134,-19.778,-0.022,1.010,-0.139,-2.136,-1.556,1.251,73.333,30778.000,1.000
7.245,-0.086,-21.127,-8.020,-23.032,-20.163,2.707,-11.912,-0.024,1.010,-0.140,-2.136,-1.465,1.343,73.333,30779.000,1.000
3.345,-5.210,-26.541,-12.294,-26.304,-21.974,-0.677,-4.704,-0.021,1.011,-0.142,-2.045,-1.526,1.373,73.333,30780.000,1.000
-0.674,-9.755,-30.108,-14.444,-27.078,-23.766,-5.704,1.023,-0.024,1.012,-0.142,-2.167,-1.373,1.404,73.333,30781.000,1.000
-3.432,-11.979,-31.004,-14.152,-25.392,-24.130,-9.943,5.709,-0.024,1.012,-0.143,-2.167,-1.312,1.465,73.333,30782.000,1.000
-4.000,-11.044,-28.571,-11.619,-21.620,-21.887,-11.528,10.389,-0.024,1.010,-0.141,-2.106,-1.312,1.434,73.333,30783.000,1.000
-2.668,-7.965,-22.716,-7.602,-16.414,-17.047,-11.100,15.548,-0.022,1.008,-0.143,-2.075,-1.373,1.434,73.333,30784.000,1.000
-0.591,-4.643,-14.248,-3.280,-10.688,-10.476,-10.682,20.563,-0.021,1.006,-0.141,-1.984,-1.251,1.373,73.333,30785.000,1.000
1.093,-2.329,-4.929,-0.052,-5.610,-2.999,-11.162,24.164,-0.023,1.003,-0.142,-1.923,-1.099,1.282,73.333,30786.000,1.000
1.678,-1.301,3.130,0.897,-2.328,4.723,-11.717,25.202,-0.025,1.004,-0.140,-1.892,-1.129,1.190,73.333,30787.000,1.000
0.803,-1.557,8.596,-0.720,-1.288,11.839,-11.502,23.339,-0.026,1.003,-0.140,-1.923,-1.068,1.190,73.333,30788.000,1.000
-1.451,-3.025,11.685,-3.911,-1.782,17.629,-10.768,19.530,-0.028,1.006,-0.139,-1.831,-1.190,1.190,73.333,30789.000,1.000
-4.485,-5.194,13.649,-7.157,-2.594,22.014,-10.170,15.417,-0.028,1.007,-0.138,-1.709,-1.221,0.916,73.333,30790.000,1.000
-7.489,-7.059,15.559,-9.554,-3.016,25.469,-9.564,12.071,-0.028,1.006,-0.140,-1.709,-1.282,0.671,73.333,30791.000,1.000
-9.740,-7.578,17.780,-10.938,-2.854,28.587,-7.972,9.670,-0.028,1.006,-0.142,-1.617,-1.343,0.610,73.333,30792.000,1.000
-10.960,-6.531,20.161,-11.361,-1.966,31.445,-5.059,7.886,-0.028,1.006,-0.141,-1.556,-1.343,0.519,73.333,30793.000,1.000
-11.464,-4.954,22.276,-10.821,-0.263,33.181,-2.257,5.999,-0.027,1.005,-0.138,-1.587,-1.312,0.549,73.333,30794.000,1.000
-11.420,-4.013,23.582,-9.150,2.172,32.703,-1.411,3.128,-0.029,1.006,-0.140,-1.434,-1.312,0.488,73.333,30795.000,1.000
-10.065,-3.480,23.562,-5.997,5.141,29.822,-2.430,-1.170,-0.025,1.008,-0.140,-1.373,-1.312,0.336,73.333,30796.000,1.000
-6.378,-2.158,21.883,-1.190,8.333,25.264,-3.342,-6.609,-0.024,1.007,-0.139,-1.434,-1.251,0.305,73.333,30797.000,1.000
-0.574,0.186,18.659,4.850,11.323,19.761,-2.822,-12.449,-0.023,1.010,-0.142,-1.465,-1.190,0.366,73.333,30798.000,1.000
5.716,2.203,14.511,11.143,13.647,13.509,-1.768,-18.037,-0.023,1.009,-0.142,-1.434,-1.099,0.427,73.333,30799.000,1.000
10.940,2.570,10.141,16.536,14.789,6.478,-1.882,-23.139,-0.022,1.008,-0.145,-1.404,-1.129,0.519,73.333,30800.000,1.000
14.945,1.649,5.844,20.148,14.247,-0.916,-3.163,-27.661,-0.024,1.006,-0.144,-1.434,-1.038,0.488,73.333,30801.000,1.000
18.542,0.980,1.475,21.642,11.806,-7.707,-3.705,-31.104,-0.022,1.007,-0.143,-1.495,-0.977,0.610,73.333,30802.000,1.000
21.942,1.273,-3.222,21.132,7.756,-13.117,-2.099,-32.515,-0.022,1.005,-0.142,-1.434,-0.824,0.580,73.333,30803.000,1.000
24.013,1.439,-8.441,18.894,2.766,-17.126,0.726,-30.932,-0.022,1.007,-0.141,-1.373,-0.854,0.580,73.333,30804.000,1.000
23.387,0.002,-14.213,15.328,-2.333,-19.979,2.713,-25.758,-0.023,1.007,-0.143,-1.373,-0.763,0.641,73.333,30805.000,1.000
20.096,-2.827,-20.214,11.055,-6.746,-21.404,3.249,-16.990,-0.024,1.007,-0.144,-1.434,-0.702,0.671,73.333,30806.000,1.000
15.500,-5.420,-25.873,6.542,-10.128,-20.877,3.542,-5.547,-0.026,1.008,-0.142,-1.495,-0.610,0.732,73.333,30807.000,1.000
10.640,-7.091,-30.597,1.758,-12.800,-18.656,4.339,6.702,-0.028,1.012,-0.142,-1.526,-0.549,0.854,73.333,30808.000,1.000
5.461,-9.090,-33.646,-3.359,-15.250,-16.004,4.395,17.637,-0.027,1.011,-0.141,-1.587,-0.519,0.763,73.333,30809.000,1.000
-0.122,-12.699,-34.248,-8.212,-17.461,-14.114,2.055,25.840,-0.028,1.008,-0.144,-1.587,-0.641,0.824,73.333,30810.000,1.000
-5.059,-17.053,-32.040,-11.639,-18.825,-12.916,-2.258,31.072,-0.027,1.008,-0.145,-1.617,-0.580,0.793,73.333,30811.000,1.000
-7.844,-19.713,-27.167,-12.737,-18.650,-11.158,-6.295,33.907,-0.029,1.008,-0.145,-1.709,-0.641,0.793,73.333,30812.000,1.000
-8.349,-19.384,-20.165,-11.559,-16.743,-7.798,-8.761,34.744,-0.029,1.010,-0.142,-1.556,-0.610,0.671,73.333,30813.000,1.000
-8.222,-17.190,-11.892,-8.860,-13.452,-3.014,-10.643,33.329,-0.027,1.011,-0.146,-1.678,-0.610,0.549,73.333,30814.000,1.000
-8.960,-14.912,-3.233,-5.237,-9.203,2.419,-13.231,29.502,-0.026,1.011,-0.146,-1.770,-0.580,0.427,73.333,30815.000,1.000
-10.182,-12.771,5.128,-0.895,-4.308,8.134,-15.774,23.984,-0.026,1.011,-0.145,-1.801,-0.610,0.549,73.333,30816.000,1.000
-10.258,-9.658,12.570,3.821,0.728,13.932,-16.053,17.989,-0.027,1.010,-0.141,-1.740,-0.671,0.427,73.333,30817.000,1.000
-8.371,-5.252,18.382,8.031,5.036,18.904,-13.099,12.246,-0.028,1.010,-0.145,-1.862,-0.580,0.427,73.333,30818.000,1.000
-5.493,-1.020,21.847,10.626,7.683,21.519,-8.586,6.680,-0.028,1.009,-0.148,-1.831,-0.519,0.275,73.333,30819.000,1.000
-3.203,1.354,22.504,11.040,8.213,20.949,-5.020,1.008,-0.027,1.009,-0.146,-1.740,-0.519,0.366,73.333,30820.000,1.000
-1.959,1.968,20.424,9.739,6.962,18.053,-2.977,-4.652,-0.025,1.008,-0.144,-1.709,-0.488,0.336,73.333,30821.000,1.000
-0.933,2.411,16.291,7.912,4.875,14.619,-0.944,-9.918,-0.026,1.009,-0.143,-1.678,-0.488,0.336,73.333,30822.000,1.000
0.880,3.903,11.330,6.968,3.198,11.778,2.434,-14.574,-0.026,1.008,-0.144,-1.709,-0.366,0.397,73.333,30823.000,1.000
3.900,6.381,7.043,8.171,3.136,9.346,6.774,-18.695,-0.023,1.008,-0.144,-1.831,-0.366,0.458,73.333,30824.000,1.000
7.967,9.106,4.495,11.979,5.116,6.413,10.658,-22.613,-0.026,1.008,-0.146,-1.831,-0.244,0.488,73.333,30825.000,1.000
12.670,11.553,3.587,17.438,8.207,2.370,13.244,-26.731,-0.025,1.006,-0.147,-1.801,-0.244,0.610,73.333,30826.000,1.000
17.486,13.499,3.166,22.585,10.642,-2.564,14.712,-31.067,-0.027,1.004,-0.147,-1.801,-0.092,0.732,73.333,30827.000,1.000
21.626,14.489,2.045,25.746,11.196,-7.662,15.262,-34.680,-0.027,1.005,-0.146,-1.892,-0.031,0.763,73.333,30828.000,1.000
24.004,13.724,-0.150,26.481,10.009,-12.236,14.367,-35.670,-0.027,1.007,-0.145,-1.801,-0.031,0.824,73.333,30829.000,1.000
23.747,10.818,-3.214,25.255,7.951,-15.855,11.531,-32.278,-0.028,1.010,-0.143,-1.709,0.061,0.977,73.333,30830.000,1.000
20.916,6.484,-7.033,22.504,5.518,-18.316,7.580,-24.162,-0.025,1.012,-0.143,-1.831,0.092,1.007,73.333,30831.000,1.000
16.497,2.040,-11.717,18.339,2.653,-19.607,4.422,-12.598,-0.024,1.015,-0.142,-1.892,0.092,1.038,73.333,30832.000,1.000
11.566,-1.748,-17.081,12.988,-0.611,-19.912,3.201,0.266,-0.025,1.014,-0.141,-1.923,0.244,1.007,73.333,30833.000,1.000
6.759,-4.856,-22.031,7.236,-3.661,-19.386,3.206,12.395,-0.028,1.012,-0.144,-2.106,0.275,1.007,73.333,30834.000,1.000
2.633,-7.020,-24.754,2.190,-5.624,-17.828,3.019,22.449,-0.028,1.011,-0.145,-2.136,0.336,1.038,73.333,30835.000,1.000
-0.047,-7.218,-23.838,-1.492,-6.176,-14.824,2.279,29.678,-0.028,1.012,-0.145,-2.228,0.305,0.946,73.333,30836.000,1.000
-0.671,-4.467,-18.992,-3.809,-5.602,-10.172,1.913,33.769,-0.028,1.013,-0.146,-2.350,0.244,0.916,73.333,30837.000,1.000
0.651,0.970,-10.729,-4.796,-3.997,-4.152,2.754,35.055,-0.029,1.012,-0.144,-2.289,0.214,0.854,73.333,30838.000,1.000
2.952,7.246,0.013,-4.202,-0.980,2.473,4.239,34.402,-0.029,1.011,-0.144,-2.319,0.244,0.763,73.333,30839.000,1.000
5.118,12.266,12.001,-1.796,3.729,9.016,5.077,32.793,-0.030,1.012,-0.146,-2.350,0.305,0.732,73.333,30840.000,1.000
6.747,15.382,23.862,2.226,9.758,15.427,5.010,31.056,-0.030,1.012,-0.149,-2.411,0.214,0.763,73.333,30841.000,1.000
7.787,17.010,33.973,6.888,15.879,21.625,4.779,29.414,-0.029,1.011,-0.147,-2.594,0.122,0.793,73.333,30842.000,1.000
7.456,16.799,40.487,10.493,20.327,26.345,4.217,27.108,-0.030,1.011,-0.147,-2.594,0.122,0.763,73.333,30843.000,1.000
4.465,13.485,42.215,11.596,21.842,27.680,1.821,23.029,-0.030,1.010,-0.148,-2.655,0.122,0.793,73.333,30844.000,1.000
-1.163,7.046,39.730,10.233,20.699,25.205,-3.002,17.113,-0.029,1.008,-0.148,-2.533,0.153,0.702,73.333,30845.000,1.000
-6.982,0.146,35.210,8.039,18.578,20.965,-8.041,10.773,-0.026,1.007,-0.145,-2.594,0.031,0.763,73.333,30846.000,1.000
-9.629,-3.552,30.886,6.958,17.198,17.709,-9.750,5.622,-0.024,1.007,-0.144,-2.594,0.153,0.854,73.333,30847.000,1.000
-7.655,-2.614,27.503,7.761,17.004,16.254,-6.733,1.858,-0.024,1.004,-0.145,-2.563,0.122,0.977,73.333,30848.000,1.000
-2.413,1.184,24.302,9.774,17.108,15.023,-1.093,-1.993,-0.025,1.004,-0.144,-2.502,0.183,0.977,73.333,30849.000,1.000
3.705,5.095,20.214,11.818,16.343,12.036,3.940,-7.859,-0.024,1.006,-0.145,-2.441,0.275,1.038,73.333,30850.000,1.000
9.249,7.999,14.884,13.202,14.227,6.998,7.188,-16.542,-0.024,1.008,-0.146,-2.411,0.244,1.129,73.333,30851.000,1.000
14.027,10.671,8.967,13.962,11.177,1.417,9.969,-26.953,-0.023,1.009,-0.148,-2.380,0.214,1.190,73.333,30852.000,1.000
17.968,13.771,3.607,14.441,8.057,-3.216,13.530,-36.807,-0.024,1.011,-0.147,-2.319,0.275,1.221,73.333,30853.000,1.000
20.136,16.249,-0.569,14.695,5.474,-7.037,16.856,-44.025,-0.025,1.011,-0.147,-2.350,0.305,1.160,73.333,30854.000,1.000
19.375,16.455,-3.858,14.368,3.459,-11.192,17.791,-47.414,-0.027,1.013,-0.146,-2.411,0.366,1.190,73.333,30855.000,1.000
15.760,14.342,-7.011,13.017,1.710,-16.013,15.735,-46.460,-0.028,1.012,-0.145,-2.533,0.336,1.160,73.333,30856.000,1.000
10.669,11.513,-10.598,10.429,-0.023,-20.437,12.160,-41.112,-0.027,1.010,-0.143,-2.533,0.336,1.160,73.333,30857.000,1.000
5.306,9.037,-14.701,6.638,-1.809,-23.177,8.473,-31.928,-0.027,1.011,-0.144,-2.563,0.305,1.251,73.333,30858.000,1.000
-0.362,5.998,-18.998,1.709,-3.714,-24.073,4.187,-20.245,-0.027,1.010,-0.146,-2.472,0.305,1.190,73.333,30859.000,1.000
-6.824,0.927,-22.877,-4.192,-5.837,-23.905,-2.081,-7.869,-0.025,1.011,-0.146,-2.472,0.275,1.160,73.333,30860.000,1.000
-13.433,-5.527,-25.334,-10.430,-8.036,-23.061,-9.969,3.613,-0.027,1.010,-0.145,-2.441,0.244,1.129,73.333,30861.000,1.000
-18.452,-10.492,-25.154,-15.972,-9.857,-21.156,-16.883,13.054,-0.025,1.010,-0.145,-2.411,0.214,1.068,73.333,30862.000,1.000
-20.932,-11.733,-21.676,-20.048,-10.880,-18.088,-20.663,19.463,-0.026,1.011,-0.145,-2.472,0.214,0.977,73.333,30863.000,1.000
-21.797,-9.811,-15.410,-22.634,-11.086,-14.628,-21.834,22.006,-0.026,1.009,-0.144,-2.502,0.244,1.129,73.333,30864.000,1.000
-22.566,-7.053,-7.863,-24.231,-10.871,-11.551,-22.408,20.556,-0.025,1.007,-0.144,-2.533,0.336,1.129,73.333,30865.000,1.000
-23.391,-4.970,-0.651,-25.246,-10.627,-8.580,-22.981,16.227,-0.026,1.007,-0.146,-2.686,0.275,1.007,73.333,30866.000,1.000
-22.839,-3.223,5.396,-25.530,-10.249,-4.561,-22.004,11.231,-0.025,1.006,-0.149,-2.655,0.214,0.946,73.333,30867.000,1.000
-19.619,-0.925,10.373,-24.482,-9.121,1.218,-18.090,7.796,-0.024,1.005,-0.147,-2.563,0.122,0.946,73.333,30868.000,1.000
-14.095,1.892,14.738,-21.515,-6.595,8.030,-12.141,6.903,-0.024,1.008,-0.149,-2.502,0.092,0.916,73.333,30869.000,1.000
-7.819,4.567,18.773,-16.479,-2.478,14.308,-6.465,8.046,-0.021,1.008,-0.146,-2.594,0.122,0.854,73.333,30870.000,1.000
-2.032,6.867,22.385,-9.914,2.778,19.099,-2.330,9.963,-0.022,1.008,-0.148,-2.472,0.153,0.916,73.333,30871.000,1.000
2.915,8.997,25.194,-3.023,8.187,22.580,0.738,11.409,-0.025,1.008,-0.145,-2.502,0.092,0.885,73.333,30872.000,1.000
6.797,10.554,26.772,2.643,12.562,25.071,3.138,11.429,-0.022,1.010,-0.145,-2.380,0.214,0.854,73.333,30873.000,1.000
8.737,9.904,26.637,5.666,14.778,25.807,3.437,9.193,-0.022,1.008,-0.142,-2.411,0.214,0.916,73.333,30874.000,1.000
7.889,5.485,24.191,5.363,14.043,23.382,-0.387,4.052,-0.023,1.008,-0.142,-2.502,0.275,0.916,73.333,30875.000,1.000
4.950,-1.916,19.179,2.337,10.405,17.631,-7.713,-3.796,-0.025,1.008,-0.139,-2.563,0.214,0.854,73.333,30876.000,1.000
2.211,-8.934,12.336,-1.591,5.114,10.426,-14.560,-12.824,-0.025,1.008,-0.143,-2.655,0.214,0.854,73.333,30877.000,1.000
1.571,-12.341,5.227,-4.399,0.124,4.188,-16.953,-20.892,-0.024,1.008,-0.146,-2.502,0.153,0.946,73.333,30878.000,1.000
2.785,-11.617,-0.791,-5.171,-3.151,-0.015,-14.407,-26.535,-0.024,1.011,-0.146,-2.563,0.183,0.946,73.333,30879.000,1.000
4.012,-8.606,-5.397,-4.522,-4.627,-2.684,-9.451,-29.335,-0.026,1.012,-0.143,-2.563,0.122,0.824,73.333,30880.000,1.000
3.681,-5.476,-9.302,-3.997,-5.356,-4.789,-4.534,-29.424,-0.027,1.013,-0.144,-2.625,0.092,0.916,73.333,30881.000,1.000
1.396,-3.649,-13.650,-5.088,-6.706,-7.017,-0.371,-27.031,-0.028,1.012,-0.144,-2.686,0.031,0.946,73.333,30882.000,1.000
-2.426,-3.936,-19.080,-8.257,-9.292,-9.659,3.137,-22.195,-0.027,1.009,-0.144,-2.716,0.031,0.977,73.333,30883.000,1.000
-7.161,-6.634,-25.125,-12.637,-12.527,-12.603,5.522,-14.793,-0.028,1.006,-0.148,-2.838,-0.031,0.916,73.333,30884.000,1.000
-12.163,-11.190,-30.636,-16.903,-15.388,-15.347,5.894,-5.182,-0.028,1.003,-0.146,-2.808,-0.061,0.793,73.333,30885.000,1.000
-16.592,-15.915,-34.477,-20.179,-17.263,-17.069,4.218,5.475,-0.027,1.002,-0.146,-2.655,-0.122,0.763,73.333,30886.000,1.000
-19.580,-18.741,-35.853,-22.194,-18.023,-17.059,1.553,15.579,-0.030,1.004,-0.146,-2.594,-0.214,0.763,73.333,30887.000,1.000
-21.084,-18.993,-34.654,-23.215,-17.939,-15.641,-1.503,23.417,-0.030,1.005,-0.143,-2.533,-0.275,0.671,73.333,30888.000,1.000
-22.199,-18.040,-31.646,-23.875,-17.585,-14.289,-5.669,27.567,-0.030,1.007,-0.142,-2.563,-0.183,0.549,73.333,30889.000,1.000
-24.086,-17.658,-28.038,-24.626,-17.384,-14.194,-11.461,27.706,-0.029,1.008,-0.145,-2.625,-0.336,0.549,73.333,30890.000,1.000
-26.789,-18.112,-24.879,-25.412,-17.354,-14.991,-17.409,24.873,-0.027,1.010,-0.148,-2.502,-0.519,0.549,73.333,30891.000,1.000
-29.428,-18.272,-22.785,-26.019,-17.414,-15.366,-20.822,20.661,-0.028,1.009,-0.147,-2.441,-0.549,0.458,73.333,30892.000,1.000
-31.377,-17.434,-21.834,-26.492,-17.720,-14.732,-20.459,16.086,-0.027,1.007,-0.146,-2.472,-0.549,0.519,73.333,30893.000,1.000
-32.692,-16.282,-21.529,-26.974,-18.507,-13.798,-17.797,11.264,-0.027,1.007,-0.149,-2.441,-0.641,0.549,73.333,30894.000,1.000
-33.188,-15.666,-20.962,-27.277,-19.732,-13.400,-15.155,5.953,-0.028,1.007,-0.144,-2.380,-0.610,0.580,73.333,30895.000,1.000
-31.823,-15.078,-19.258,-26.850,-20.975,-13.280,-13.101,0.191,-0.025,1.004,-0.148,-2.319,-0.580,0.580,73.333,30896.000,1.000
-27.564,-12.969,-15.813,-25.041,-21.392,-12.208,-10.325,-5.381,-0.023,1.002,-0.148,-2.319,-0.580,0.641,73.333,30897.000,1.000
-20.780,-8.451,-10.213,-21.375,-19.788,-9.186,-5.930,-9.687,-0.021,1.004,-0.146,-2.258,-0.580,0.732,73.333,30898.000,1.000
-13.487,-2.457,-2.523,-16.000,-15.397,-4.493,-1.214,-12.124,-0.021,1.006,-0.147,-2.106,-0.549,0.977,73.333,30899.000,1.000
-7.794,3.100,6.274,-9.828,-8.737,0.562,1.464,-13.284,-0.020,1.007,-0.149,-2.167,-0.488,0.977,73.333,30900.000,1.000
-4.037,7.290,14.619,-3.840,-1.306,4.882,1.384,-14.439,-0.021,1.010,-0.146,-2.075,-0.458,1.068,73.333,30901.000,1.000
-0.787,10.660,21.186,1.706,5.464,8.144,0.193,-16.621,-0.024,1.013,-0.147,-2.136,-0.336,1.068,73.333,30902.000,1.000
3.532,13.918,25.407,7.300,10.892,10.219,-0.121,-20.248,-0.025,1.011,-0.146,-2.228,-0.458,1.068,73.333,30903.000,1.000
9.451,17.030,27.544,13.660,15.120,10.785,0.896,-24.951,-0.025,1.011,-0.147,-2.289,-0.366,1.160,73.333,30904.000,1.000
16.605,19.717,28.317,21.073,18.706,9.758,2.623,-29.406,-0.027,1.008,-0.147,-2.289,-0.366,1.190,73.333,30905.000,1.000
24.330,22.150,28.177,28.885,21.915,7.739,5.011,-31.762,-0.027,1.008,-0.148,-2.228,-0.397,1.099,73.333,30906.000,1.000
31.703,24.662,26.863,35.563,24.319,5.705,8.939,-30.565,-0.026,1.010,-0.150,-2.228,-0.366,0.977,73.333,30907.000,1.000
37.125,26.736,23.707,39.356,25.109,4.134,14.630,-25.454,-0.029,1.009,-0.155,-2.136,-0.397,0.854,73.333,30908.000,1.000
38.518,26.707,18.219,39.014,23.619,2.527,20.243,-17.285,-0.030,1.011,-0.149,-2.167,-0.336,0.763,73.333,30909.000,1.000
34.610,23.030,10.424,34.230,19.658,0.109,22.955,-7.644,-0.030,1.016,-0.149,-2.136,-0.488,0.580,73.333,30910.000,1.000
26.276,16.127,1.092,25.946,13.818,-2.906,21.729,2.136,-0.031,1.019,-0.149,-2.258,-0.488,0.549,73.333,30911.000,1.000
16.503,8.780,-8.111,16.427,7.685,-5.117,18.486,11.620,-0.031,1.020,-0.149,-2.594,-0.458,0.458,73.333,30912.000,1.000
8.717,4.188,-15.059,8.520,3.324,-5.262,16.094,20.772,-0.032,1.019,-0.147,-2.716,-0.702,0.305,73.333,30913.000,1.000
4.692,3.363,-18.255,4.098,1.978,-3.554,15.471,28.946,-0.031,1.016,-0.150,-2.930,-0.641,0.214,73.333,30914.000,1.000
3.849,4.607,-17.805,2.921,3.093,-1.508,15.180,34.749,-0.028,1.014,-0.148,-3.082,-0.763,0.092,73.333,30915.000,1.000
4.378,5.440,-15.244,3.184,4.839,-0.526,13.656,37.007,-0.028,1.015,-0.146,-3.174,-0.793,-0.092,73.333,30916.000,1.000
4.736,4.622,-12.255,3.188,5.655,-0.841,10.947,35.703,-0.026,1.015,-0.148,-3.296,-0.732,-0.183,73.333,30917.000,1.000
3.950,2.256,-9.634,2.366,5.170,-1.940,7.831,31.763,-0.026,1.014,-0.147,-3.448,-0.580,0.000,73.333,30918.000,1.000
1.174,-1.289,-7.321,0.919,3.798,-3.539,4.063,26.077,-0.023,1.016,-0.144,-3.510,-0.549,-0.031,73.333,30919.000,1.000
-4.031,-5.668,-5.026,-1.030,1.886,-5.594,-1.328,19.020,-0.021,1.017,-0.146,-3.601,-0.549,0.061,73.333,30920.000,1.000
-10.840,-9.831,-2.602,-3.618,-0.507,-7.448,-8.043,10.891,-0.021,1.015,-0.144,-3.693,-0.458,0.061,73.333,30921.000,1.000
-17.154,-11.975,0.091,-6.665,-3.066,-7.661,-13.837,2.561,-0.020,1.014,-0.143,-4.059,-0.305,0.275,73.333,30922.000,1.000
-20.960,-11.007,3.239,-9.435,-4.991,-5.229,-16.487,-4.690,-0.020,1.010,-0.145,-4.181,-0.061,0.397,73.333,30923.000,1.000
-21.641,-7.756,6.759,-11.218,-5.609,-0.810,-15.942,-10.066,-0.019,1.010,-0.145,-4.395,0.122,0.549,73.333,30924.000,1.000
-19.801,-4.040,10.195,-11.812,-4.901,3.880,-13.756,-13.594,-0.018,1.006,-0.141,-4.395,0.183,0.641,73.333,30925.000,1.000
-16.144,-0.663,13.131,-11.238,-3.203,7.847,-10.680,-15.602,-0.021,1.003,-0.140,-4.425,0.336,0.824,73.333,30926.000,1.000
-10.941,3.123,15.623,-9.189,-0.572,11.468,-5.823,-16.274,-0.022,1.003,-0.141,-4.333,0.641,0.824,73.333,30927.000,1.000
-4.621,8.103,17.986,-5.169,3.181,15.267,1.487,-15.933,-0.022,1.004,-0.143,-4.211,0.610,0.885,73.333,30928.000,1.000
1.507,13.444,20.060,0.628,7.684,18.518,9.642,-15.641,-0.023,1.003,-0.140,-4.242,0.671,1.129,73.333,30929.000,1.000
5.824,17.154,21.047,6.954,11.679,19.613,15.557,-16.956,-0.027,1.003,-0.139,-4.242,0.763,1.068,73.333,30930.000,1.000
7.953,18.150,20.252,12.381,13.831,17.720,17.657,-20.692,-0.028,1.001,-0.142,-4.211,0.793,1.068,73.333,30931.000,1.000
9.093,17.113,17.698,16.209,13.652,13.507,17.181,-26.112,-0.029,1.003,-0.142,-4.242,0.702,1.190,73.333,30932.000,1.000
10.445,15.069,13.903,18.359,11.551,8.185,16.199,-31.368,-0.029,1.002,-0.139,-4.150,0.702,1.068,73.333,30933.000,1.000
11.815,11.927,9.269,18.818,8.313,2.471,15.295,-34.424,-0.028,1.001,-0.142,-4.059,0.671,0.977,73.333,30934.000,1.000
12.225,7.210,3.828,17.581,4.745,-3.107,13.931,-33.576,-0.030,1.001,-0.141,-3.998,0.641,0.946,73.333,30935.000,1.000
11.417,1.791,-2.326,14.955,1.651,-7.345,12.436,-27.664,-0.027,1.002,-0.142,-4.028,0.641,0.763,73.333,30936.000,1.000
9.954,-2.221,-8.430,11.614,-0.114,-8.677,12.270,-16.427,-0.029,1.002,-0.140,-3.754,0.732,0.671,73.333,30937.000,1.000
8.036,-3.537,-13.143,8.256,0.114,-6.591,14.124,-1.017,-0.026,1.003,-0.140,-3.845,0.641,0.641,73.333,30938.000,1.000
5.131,-2.953,-15.417,5.223,2.330,-2.313,16.684,15.958,-0.025,1.004,-0.139,-3.754,0.519,0.610,73.333,30939.000,1.000
1.048,-2.280,-15.249,2.487,5.688,2.257,17.954,31.442,-0.026,1.007,-0.136,-3.754,0.641,0.641,73.333,30940.000,1.000
-3.158,-2.409,-13.571,-0.015,8.919,6.037,17.510,43.269,-0.026,1.006,-0.136,-3.754,0.763,0.671,73.333,30941.000,1.000
-5.850,-2.859,-11.537,-2.129,10.969,8.955,16.713,50.576,-0.027,1.008,-0.138,-3.662,0.702,0.763,73.333,30942.000,1.000
-6.345,-3.033,-9.841,-3.644,11.411,10.990,16.585,53.373,-0.027,1.008,-0.136,-3.510,0.641,0.702,73.333,30943.000,1.000
-5.616,-3.279,-8.509,-4.660,10.397,11.585,16.116,52.165,-0.026,1.009,-0.138,-3.540,0.671,0.854,73.333,30944.000,1.000
-5.385,-4.454,-7.229,-5.694,8.299,10.238,13.288,47.850,-0.026,1.010,-0.140,-3.510,0.763,0.946,73.333,30945.000,1.000
-6.559,-6.702,-5.668,-7.221,5.551,7.456,7.580,41.655,-0.025,1.010,-0.140,-3.510,0.702,1.007,73.333,30946.000,1.000
-8.650,-9.131,-3.472,-9.111,2.769,4.714,0.714,34.923,-0.027,1.011,-0.138,-3.510,0.793,1.129,73.333,30947.000,1.000
-10.729,-11.031,-0.412,-10.782,0.603,3.241,-5.401,28.578,-0.025,1.013,-0.140,-3.540,0.824,1.099,73.333,30948.000,1.000
-12.596,-12.991,3.111,-11.920,-0.776,2.901,-10.872,22.527,-0.028,1.016,-0.137,-3.510,0.793,1.160,73.333,30949.000,1.000
-14.471,-15.907,6.125,-12.670,-1.741,2.675,-17.010,16.009,-0.030,1.013,-0.139,-3.479,0.793,1.251,73.333,30950.000,1.000
-15.708,-18.975,8.021,-13.068,-2.542,2.332,-23.404,8.862,-0.028,1.013,-0.140,-3.418,0.702,1.221,73.333,30951.000,1.000
-14.705,-19.653,9.254,-12.597,-2.721,3.060,-27.085,2.115,-0.028,1.012,-0.140,-3.387,0.671,1.312,73.333,30952.000,1.000
-10.421,-15.959,10.973,-10.422,-1.287,6.169,-25.170,-2.843,-0.028,1.012,-0.141,-3.387,0.671,1.404,73.333,30953.000,1.000
-3.559,-8.366,13.924,-6.121,2.344,11.478,-17.723,-5.542,-0.028,1.011,-0.144,-3.265,0.610,1.373,73.333,30954.000,1.000
4.010,0.659,17.454,-0.343,7.381,17.075,-7.571,-7.010,-0.028,1.010,-0.141,-3.387,0.427,1.434,73.333,30955.000,1.000
10.690,8.505,19.560,5.349,11.737,20.469,2.182,-9.143,-0.030,1.012,-0.146,-3.143,0.488,1.282,73.333,30956.000,1.000
15.754,13.605,18.274,9.408,13.336,20.017,9.859,-13.263,-0.029,1.013,-0.143,-3.143,0.397,1.160,73.333,30957.000,1.000
18.938,15.407,13.230,11.231,11.504,15.572,14.833,-19.079,-0.027,1.013,-0.140,-3.235,0.427,1.129,73.333,30958.000,1.000
20.053,13.938,5.822,11.279,7.182,8.171,16.612,-24.971,-0.029,1.012,-0.140,-3.174,0.397,1.160,73.333,30959.000,1.000
19.142,9.840,-2.015,10.430,1.972,-0.566,15.173,-29.169,-0.026,1.011,-0.139,-3.143,0.275,1.129,73.333,30960.000,1.000
16.906,4.681,-8.945,9.337,-2.811,-8.824,12.052,-30.645,-0.024,1.009,-0.136,-3.235,0.275,1.099,73.333,30961.000,1.000
14.592,0.429,-14.431,8.385,-6.283,-15.066,9.946,-29.038,-0.022,1.009,-0.140,-3.204,0.244,1.160,73.333,30962.000,1.000
13.083,-1.937,-18.314,7.870,-7.728,-18.634,10.461,-24.070,-0.021,1.006,-0.145,-3.113,0.305,1.221,73.333,30963.000,1.000
12.125,-3.157,-20.514,7.823,-6.739,-19.885,12.529,-15.472,-0.022,1.006,-0.140,-2.960,0.244,1.221,73.333,30964.000,1.000
10.732,-4.630,-21.103,7.795,-3.597,-19.510,13.695,-3.467,-0.024,1.004,-0.139,-2.899,0.305,1.251,73.333,30965.000,1.000
8.360,-6.686,-20.438,7.085,0.726,-17.654,12.922,10.897,-0.023,1.007,-0.140,-2.838,0.214,1.282,73.333,30966.000,1.000
5.407,-8.193,-18.879,5.330,5.079,-13.881,11.548,25.847,-0.022,1.007,-0.140,-2.930,0.336,1.373,73.333,30967.000,1.000
2.653,-7.803,-16.276,2.971,8.818,-8.059,11.417,39.253,-0.021,1.008,-0.140,-2.808,0.458,1.373,73.333,30968.000,1.000
0.361,-5.436,-12.209,0.922,11.781,-1.238,12.631,49.067,-0.020,1.008,-0.141,-2.655,0.336,1.434,73.333,30969.000,1.000
-1.836,-2.350,-6.903,-0.424,13.581,4.759,13.717,53.826,-0.020,1.007,-0.141,-2.594,0.397,1.526,73.333,30970.000,1.000
-4.120,0.244,-1.431,-1.637,13.412,8.854,13.722,53.203,-0.019,1.006,-0.138,-2.563,0.366,1.617,73.333,30971.000,1.000
-6.136,2.046,3.116,-3.630,10.749,11.349,13.028,48.100,-0.020,1.007,-0.139,-2.625,0.427,1.617,73.333,30972.000,1.000
-7.602,3.121,6.443,-6.751,6.063,12.929,11.917,40.084,-0.024,1.006,-0.141,-2.563,0.458,1.526,73.333,30973.000,1.000
-8.663,3.242,9.101,-10.394,0.805,13.780,9.466,30.735,-0.028,1.006,-0.140,-2.411,0.397,1.373,73.333,30974.000,1.000
-9.345,2.217,11.874,-13.340,-3.285,14.019,4.775,21.415,-0.027,1.007,-0.139,-2.472,0.366,1.221,73.333,30975.000,1.000
-9.081,0.621,15.136,-14.488,-4.982,14.314,-1.162,13.205,-0.029,1.007,-0.138,-2.411,0.275,1.129,73.333,30976.000,1.000
-7.364,-0.404,18.660,-13.548,-4.082,15.350,-5.876,6.557,-0.028,1.009,-0.138,-2.533,0.122,0.946,73.333,30977.000,1.000
-4.729,-0.261,22.035,-11.121,-1.276,16.908,-7.888,1.125,-0.029,1.007,-0.143,-2.563,0.092,0.885,73.333,30978.000,1.000
-2.592,0.538,25.141,-8.103,2.466,17.974,-8.144,-3.772,-0.028,1.010,-0.139,-2.472,-0.031,0.824,73.333,30979.000,1.000
-2.007,1.072,27.881,-5.187,6.248,17.753,-8.659,-8.567,-0.028,1.009,-0.137,-2.502,-0.122,0.641,73.333,30980.000,1.000
-2.663,1.139,29.673,-2.890,9.201,16.508,-10.003,-13.238,-0.027,1.008,-0.139,-2.502,-0.244,0.641,73.333,30981.000,1.000
-3.258,1.378,29.676,-1.655,10.610,15.288,-10.830,-17.591,-0.024,1.010,-0.140,-2.502,-0.275,0.549,73.333,30982.000,1.000
-2.993,2.195,27.484,-1.747,10.230,14.685,-9.989,-21.661,-0.022,1.008,-0.139,-2.380,-0.397,0.427,73.333,30983.000,1.000
-2.371,3.022,23.385,-3.100,8.360,14.154,-8.109,-25.612,-0.021,1.008,-0.138,-2.441,-0.610,0.366,73.333,30984.000,1.000
-2.307,3.034,17.942,-5.270,5.506,12.656,-6.582,-29.343,-0.022,1.011,-0.140,-2.533,-0.549,0.305,73.333,30985.000,1.000
-2.889,2.247,11.442,-7.603,1.989,9.690,-5.549,-32.315,-0.023,1.012,-0.143,-2.533,-0.519,0.244,73.333,30986.000,1.000
-3.424,1.360,3.821,-9.534,-2.086,5.513,-3.713,-33.780,-0.020,1.013,-0.143,-2.655,-0.488,0.275,73.333,30987.000,1.000
-3.389,0.714,-4.875,-10.663,-6.482,0.546,-0.227,-33.271,-0.020,1.013,-0.142,-2.777,-0.488,0.427,73.333,30988.000,1.000
-2.791,0.055,-13.866,-10.499,-10.407,-4.957,3.991,-30.825,-0.017,1.014,-0.139,-2.869,-0.458,0.458,73.333,30989.000,1.000
-1.670,-0.639,-21.584,-8.470,-12.657,-10.545,7.228,-26.741,-0.017,1.014,-0.143,-2.960,-0.366,0.488,73.333,30990.000,1.000
0.254,-0.749,-26.604,-4.524,-12.477,-15.234,8.728,-21.448,-0.016,1.011,-0.143,-2.960,-0.244,0.580,73.333,30991.000,1.000
3.095,0.240,-28.616,0.389,-10.209,-18.003,8.937,-15.594,-0.019,1.011,-0.143,-3.113,-0.244,0.641,73.333,30992.000,1.000
6.079,1.770,-28.281,4.735,-6.955,-18.622,8.191,-9.960,-0.019,1.011,-0.142,-3.082,-0.153,0.702,73.333,30993.000,1.000
7.710,2.415,-26.370,7.372,-3.748,-17.769,5.889,-5.147,-0.020,1.010,-0.141,-3.204,-0.153,0.641,73.333,30994.000,1.000
7.087,1.391,-23.245,8.163,-1.078,-16.235,1.650,-1.339,-0.021,1.009,-0.146,-3.326,-0.244,0.610,73.333,30995.000,1.000
4.986,-0.188,-18.868,7.884,1.060,-14.148,-2.989,1.750,-0.023,1.010,-0.144,-3.296,-0.214,0.610,73.333,30996.000,1.000
3.263,-0.080,-13.149,7.561,2.826,-11.210,-5.078,4.558,-0.025,1.010,-0.144,-3.326,-0.183,0.458,73.333,30997.000,1.000
3.000,2.746,-6.381,7.694,4.172,-7.645,-3.059,7.170,-0.026,1.009,-0.143,-3.510,-0.214,0.397,73.333,30998.000,1.000
3.489,6.828,0.634,8.009,4.763,-4.438,1.376,9.217,-0.024,1.009,-0.147,-3.571,-0.336,0.305,73.333,30999.000,1.000
3.179,9.608,6.818,7.793,4.137,-2.472,4.782,10.142,-0.024,1.008,-0.141,-3.540,-0.336,0.153,73.333,31000.000,1.000
1.414,9.845,11.222,6.389,1.951,-1.642,5.160,9.474,-0.026,1.007,-0.139,-3.540,-0.427,0.000,73.333,31001.000,1.000
-0.984,8.306,13.432,3.650,-1.649,-0.967,3.312,7.197,-0.025,1.006,-0.140,-3.540,-0.427,-0.061,73.333,31002.000,1.000
-2.828,6.253,13.721,0.108,-5.825,0.351,1.139,3.888,-0.026,1.004,-0.145,-3.632,-0.488,-0.244,73.333,31003.000,1.000
-3.838,3.915,12.880,-3.191,-9.250,2.153,-0.636,0.477,-0.024,1.004,-0.143,-3.540,-0.549,-0.336,73.333,31004.000,1.000
-4.447,0.967,11.935,-5.038,-10.529,3.920,-2.432,-1.917,-0.024,1.004,-0.143,-3.448,-0.549,-0.427,73.333,31005.000,1.000
-4.796,-2.203,11.604,-4.731,-8.957,5.671,-4.207,-2.346,-0.025,1.005,-0.140,-3.479,-0.610,-0.458,73.333,31006.000,1.000
-4.602,-4.702,11.740,-2.711,-5.215,7.624,-5.240,-0.894,-0.026,1.007,-0.140,-3.448,-0.610,-0.427,73.333,31007.000,1.000
-4.035,-6.486,11.464,-0.384,-1.143,9.197,-5.688,0.868,-0.027,1.008,-0.141,-3.479,-0.641,-0.458,73.333,31008.000,1.000
-4.123,-8.798,9.862,0.751,1.297,8.966,-7.413,0.650,-0.027,1.009,-0.142,-3.326,-0.671,-0.488,73.333,31009.000,1.000
-5.714,-12.679,6.585,-0.020,1.021,5.892,-12.221,-3.080,-0.027,1.007,-0.140,-3.448,-0.641,-0.519,73.333,31010.000,1.000
-8.072,-17.138,1.902,-2.275,-1.767,0.410,-19.218,-10.176,-0.026,1.006,-0.140,-3.418,-0.519,-0.397,73.333,31011.000,1.000
-9.209,-19.609,-3.635,-4.849,-5.879,-5.944,-24.786,-18.980,-0.027,1.005,-0.137,-3.448,-0.549,-0.366,73.333,31012.000,1.000
-7.757,-18.548,-9.358,-6.588,-9.767,-11.776,-25.708,-27.161,-0.027,1.005,-0.139,-3.387,-0.580,-0.397,73.333,31013.000,1.000
-4.109,-14.953,-14.501,-6.802,-12.157,-16.457,-21.888,-32.644,-0.027,1.004,-0.143,-3.235,-0.641,-0.305,73.333,31014.000,1.000
0.395,-10.977,-18.395,-5.371,-12.534,-19.658,-15.590,-34.205,-0.027,1.004,-0.141,-3.265,-0.671,-0.275,73.333,31015.000,1.000
4.787,-7.729,-20.919,-2.843,-11.391,-20.897,-8.700,-31.611,-0.027,1.006,-0.140,-3.113,-0.671,-0.122,73.333,31016.000,1.000
8.414,-5.161,-22.896,-0.549,-10.088,-20.134,-1.841,-25.738,-0.027,1.008,-0.137,-3.143,-0.763,-0.092,73.333,31017.000,1.000
10.106,-3.554,-25.670,-0.076,-10.045,-18.547,4.055,-18.478,-0.027,1.008,-0.137,-3.113,-0.793,-0.092,73.333,31018.000,1.000
8.540,-3.800,-29.626,-1.961,-11.392,-17.733,6.949,-11.684,-0.027,1.010,-0.139,-3.143,-0.854,0.000,73.333,31019.000,1.000
3.837,-5.849,-33.125,-4.882,-12.414,-17.917,5.476,-5.765,-0.030,1.010,-0.137,-3.235,-0.854,0.000,73.333,31020.000,1.000
-1.757,-7.755,-33.367,-6.538,-10.763,-17.589,0.937,0.330,-0.029,1.010,-0.136,-3.204,-0.854,0.153,73.333,31021.000,1.000
-5.455,-7.128,-28.442,-5.497,-5.453,-15.258,-3.489,7.474,-0.028,1.011,-0.137,-3.174,-0.885,0.092,73.333,31022.000,1.000
-6.374,-3.607,-18.782,-2.269,2.235,-11.315,-5.812,14.858,-0.028,1.013,-0.139,-3.113,-0.916,0.153,73.333,31023.000,1.000
-6.133,0.539,-7.090,1.250,9.598,-7.817,-6.986,20.287,-0.028,1.010,-0.137,-3.113,-0.946,0.214,73.333,31024.000,1.000
-6.981,2.474,3.142,3.146,14.128,-6.427,-9.237,21.951,-0.028,1.011,-0.138,-3.235,-0.854,0.275,73.333,31025.000,1.000
-9.899,1.019,9.302,2.282,14.431,-6.954,-13.268,19.666,-0.027,1.010,-0.140,-3.296,-0.885,0.305,73.333,31026.000,1.000
-14.579,-3.183,10.447,-1.701,10.276,-7.934,-17.702,14.656,-0.028,1.011,-0.137,-3.326,-0.854,0.458,73.333,31027.000,1.000
-20.245,-8.744,7.542,-8.256,2.698,-8.017,-20.772,8.855,-0.027,1.010,-0.138,-3.204,-0.946,0.488,73.333,31028.000,1.000
-25.934,-14.242,3.242,-15.647,-5.907,-6.603,-21.896,4.271,-0.026,1.010,-0.141,-3.296,-0.946,0.427,73.333,31029.000,1.000
-30.307,-18.248,0.678,-21.420,-12.573,-3.580,-21.493,2.288,-0.029,1.010,-0.142,-3.235,-1.068,0.397,73.333,31030.000,1.000
-31.761,-19.262,1.790,-23.688,-15.206,1.134,-19.554,3.223,-0.031,1.009,-0.141,-3.113,-0.946,0.549,73.333,31031.000,1.000
-29.524,-16.536,6.339,-22.330,-13.694,7.201,-15.514,6.148,-0.030,1.009,-0.142,-3.204,-0.977,0.549,73.333,31032.000,1.000
-24.850,-11.315,12.244,-19.059,-9.856,13.041,-10.054,9.009,-0.030,1.009,-0.140,-3.174,-0.977,0.580,73.333,31033.000,1.000
-20.378,-6.483,17.139,-15.939,-5.994,16.436,-5.674,9.746,-0.029,1.008,-0.142,-3.143,-0.916,0.427,73.333,31034.000,1.000
-17.902,-4.367,19.856,-13.723,-3.276,16.467,-4.472,7.907,-0.029,1.009,-0.143,-3.204,-1.007,0.427,73.333,31035.000,1.000
-17.060,-5.037,20.527,-11.801,-1.555,14.340,-5.987,4.871,-0.029,1.010,-0.142,-3.143,-0.946,0.397,73.333,31036.000,1.000
-16.211,-6.955,19.636,-9.463,-0.369,12.047,-7.929,2.349,-0.029,1.011,-0.140,-3.174,-0.977,0.336,73.333,31037.000,1.000
-14.125,-8.920,17.373,-6.720,0.405,10.592,-8.667,1.102,-0.027,1.011,-0.141,-3.235,-0.885,0.397,73.333,31038.000,1.000
-10.743,-10.904,13.811,-3.984,0.735,9.529,-8.554,0.865,-0.030,1.010,-0.139,-3.174,-1.007,0.458,73.333,31039.000,1.000
-6.670,-13.172,9.131,-1.518,0.586,7.646,-8.896,0.577,-0.028,1.009,-0.142,-3.204,-0.977,0.458,73.333,31040.000,1.000
-2.171,-15.001,3.513,0.725,-0.194,4.097,-9.803,-1.162,-0.028,1.009,-0.143,-3.204,-0.885,0.519,73.333,31041.000,1.000
3.047,-14.790,-2.929,2.901,-1.797,-0.900,-9.617,-5.093,-0.028,1.008,-0.144,-3.235,-0.854,0.549,73.333,31042.000,1.000
8.769,-11.879,-10.074,4.853,-4.261,-6.501,-7.043,-10.644,-0.028,1.010,-0.141,-3.235,-0.824,0.427,73.333,31043.000,1.000
13.773,-7.633,-17.392,6.215,-7.147,-11.760,-2.946,-16.003,-0.028,1.010,-0.138,-3.296,-0.824,0.549,73.333,31044.000,1.000
17.073,-4.004,-23.543,7.060,-9.269,-15.374,0.874,-18.651,-0.025,1.012,-0.138,-3.418,-0.793,0.549,73.333,31045.000,1.000
18.915,-1.635,-27.125,7.787,-9.410,-15.943,3.787,-16.721,-0.025,1.010,-0.139,-3.418,-0.732,0.519,73.333,31046.000,1.000
20.086,0.115,-28.042,8.289,-7.537,-13.183,6.291,-10.427,-0.025,1.010,-0.136,-3.387,-0.702,0.641,73.333,31047.000,1.000
20.761,1.708,-27.590,7.980,-4.749,-8.575,8.328,-1.911,-0.025,1.010,-0.141,-3.479,-0.549,0.580,73.333,31048.000,1.000
20.376,2.691,-27.164,6.716,-2.063,-4.501,8.562,6.263,-0.027,1.009,-0.140,-3.540,-0.488,0.641,73.333,31049.000,1.000
18.572,2.649,-27.180,5.221,0.302,-2.582,5.854,12.435,-0.028,1.010,-0.135,-3.601,-0.519,0.824,73.333,31050.000,1.000
15.998,2.278,-27.165,4.501,2.579,-2.697,1.118,16.257,-0.027,1.012,-0.138,-3.571,-0.336,0.793,73.333,31051.000,1.000
13.873,2.799,-26.425,5.052,4.909,-3.596,-3.056,18.332,-0.026,1.013,-0.137,-3.601,-0.336,0.732,73.333,31052.000,1.000
12.721,4.445,-24.315,6.672,7.276,-4.317,-4.865,19.482,-0.026,1.012,-0.140,-3.571,-0.183,0.824,73.333,31053.000,1.000
11.796,6.126,-20.277,8.818,9.619,-4.904,-4.892,20.081,-0.026,1.011,-0.137,-3.601,-0.153,0.824,73.333,31054.000,1.000
10.027,6.768,-14.112,10.913,11.738,-5.768,-4.911,19.955,-0.029,1.010,-0.135,-3.662,-0.153,0.946,73.333,31055.000,1.000
7.396,6.768,-6.187,12.435,13.239,-6.458,-5.369,18.983,-0.028,1.009,-0.137,-3.754,-0.092,0.916,73.333,31056.000,1.000
4.973,7.597,2.662,12.922,13.734,-5.477,-4.856,17.543,-0.030,1.009,-0.138,-3.662,-0.153,0.854,73.333,31057.000,1.000
3.414,9.775,11.273,11.947,13.031,-1.703,-2.354,16.048,-0.028,1.009,-0.142,-3.754,-0.122,0.824,73.333,31058.000,1.000
1.942,11.855,18.335,9.242,11.142,4.335,0.854,14.348,-0.029,1.008,-0.136,-3.815,-0.122,0.763,73.333,31059.000,1.000
-0.642,11.959,22.867,5.063,8.348,10.994,2.426,12.010,-0.029,1.009,-0.134,-3.876,-0.092,0.793,73.333,31060.000,1.000
-4.213,9.936,24.675,0.317,5.216,16.893,1.722,8.926,-0.030,1.009,-0.138,-3.845,-0.122,0.763,73.333,31061.000,1.000
-7.298,7.301,24.224,-3.952,2.229,21.153,0.285,5.150,-0.031,1.009,-0.140,-3.784,-0.183,0.702,73.333,31062.000,1.000
-8.835,5.145,22.156,-7.254,-0.565,22.813,-0.591,0.433,-0.031,1.005,-0.138,-3.784,-0.214,0.671,73.333,31063.000,1.000
-9.286,2.938,19.149,-9.659,-3.321,20.991,-1.726,-5.516,-0.031,1.005,-0.138,-3.845,-0.153,0.702,73.333,31064.000,1.000
-9.739,-0.300,15.987,-11.242,-5.938,15.843,-4.770,-12.417,-0.030,1.005,-0.138,-3.815,-0.275,0.763,73.333,31065.000,1.000
-10.264,-4.144,13.476,-11.667,-7.887,9.113,-9.498,-19.224,-0.027,1.007,-0.137,-3.662,-0.214,0.641,73.333,31066.000,1.000
-9.640,-6.670,12.193,-10.327,-8.403,3.304,-13.385,-24.653,-0.026,1.005,-0.139,-3.601,-0.153,0.671,73.333,31067.000,1.000
-6.825,-6.353,12.133,-6.967,-6.963,-0.204,-14.233,-28.206,-0.027,1.005,-0.137,-3.571,-0.244,0.580,73.333,31068.000,1.000
-2.229,-3.578,12.580,-2.115,-3.700,-2.094,-12.522,-30.504,-0.028,1.007,-0.138,-3.540,-0.092,0.641,73.333,31069.000,1.000
2.884,0.188,12.595,3.222,0.698,-3.775,-10.416,-32.216,-0.030,1.006,-0.138,-3.448,-0.153,0.763,73.333,31070.000,1.000
7.764,4.195,11.676,8.110,5.357,-5.506,-8.988,-32.936,-0.029,1.006,-0.138,-3.418,-0.183,0.732,73.333,31071.000,1.000
12.244,8.592,9.757,11.781,9.326,-6.428,-7.505,-31.533,-0.025,1.006,-0.138,-3.357,-0.061,0.641,73.333,31072.000,1.000
15.777,13.087,6.826,13.604,11.688,-6.018,-5.286,-27.232,-0.025,1.005,-0.138,-3.235,-0.153,0.641,73.333,31073.000,1.000
17.284,16.300,2.820,13.341,11.961,-4.799,-3.137,-20.109,-0.025,1.006,-0.137,-3.296,-0.153,0.610,73.333,31074.000,1.000
16.267,16.841,-2.256,11.370,10.379,-3.735,-2.393,-10.967,-0.027,1.009,-0.137,-3.082,-0.153,0.641,73.333,31075.000,1.000
13.828,14.882,-8.146,8.560,7.732,-3.269,-2.866,-1.068,-0.026,1.010,-0.135,-2.991,-0.122,0.702,73.333,31076.000,1.000
12.101,12.197,-14.181,5.939,4.971,-3.113,-2.570,8.241,-0.027,1.009,-0.134,-3.082,-0.153,0.702,73.333,31077.000,1.000
12.279,10.291,-19.459,4.212,2.765,-3.061,-0.064,15.795,-0.025,1.007,-0.135,-3.021,-0.061,0.763,73.333,31078.000,1.000
13.412,8.964,-23.273,3.418,1.224,-3.598,3.487,20.803,-0.025,1.010,-0.136,-3.052,0.122,0.763,73.333,31079.000,1.000
13.665,7.263,-25.152,3.235,0.175,-5.076,5.561,23.289,-0.025,1.009,-0.135,-3.052,0.061,0.763,73.333,31080.000,1.000
12.502,5.357,-24.634,3.501,-0.426,-6.662,5.330,24.170,-0.025,1.009,-0.137,-3.113,0.061,0.763,73.333,31081.000,1.000
10.994,4.626,-21.398,4.236,-0.462,-6.860,4.335,24.382,-0.026,1.010,-0.137,-3.265,0.000,0.824,73.333,31082.000,1.000
10.227,5.962,-15.552,5.468,0.251,-4.966,4.048,24.129,-0.025,1.010,-0.136,-3.174,0.214,0.854,73.333,31083.000,1.000
10.107,8.609,-7.690,7.226,1.898,-1.675,3.819,22.960,-0.026,1.011,-0.133,-3.235,0.336,0.793,73.333,31084.000,1.000
9.858,10.997,1.110,9.417,4.370,1.669,1.918,20.236,-0.027,1.010,-0.134,-3.357,0.244,0.793,73.333,31085.000,1.000
9.073,12.245,9.247,11.487,6.880,4.224,-1.966,15.573,-0.025,1.011,-0.134,-3.448,0.397,0.854,73.333,31086.000,1.000
7.923,12.378,14.921,12.383,8.088,5.987,-6.073,9.174,-0.025,1.010,-0.134,-3.479,0.458,0.732,73.333,31087.000,1.000
6.638,11.371,16.903,11.236,6.938,7.138,-8.505,1.802,-0.026,1.012,-0.131,-3.479,0.488,0.763,73.333,31088.000,1.000
5.122,8.605,15.049,8.056,3.362,7.382,-9.225,-5.710,-0.025,1.013,-0.132,-3.510,0.336,0.732,73.333,31089.000,1.000
3.373,3.807,10.242,3.732,-1.799,6.309,-9.449,-12.782,-0.025,1.014,-0.134,-3.601,0.366,0.702,73.333,31090.000,1.000
2.345,-1.526,4.143,-0.291,-7.202,4.339,-9.274,-18.902,-0.027,1.016,-0.133,-3.571,0.366,0.702,73.333,31091.000,1.000
3.677,-4.517,-1.236,-2.443,-11.425,2.565,-7.119,-23.688,-0.029,1.016,-0.133,-3.662,0.336,0.519,73.333,31092.000,1.000
7.907,-3.383,-4.340,-1.847,-13.557,1.270,-2.177,-27.609,-0.029,1.014,-0.131,-3.815,0.305,0.519,73.333,31093.000,1.000
13.455,0.905,-4.677,1.165,-13.503,-0.635,3.612,-31.895,-0.028,1.011,-0.133,-3.754,0.275,0.488,73.333,31094.000,1.000
18.145,6.028,-2.556,5.637,-11.505,-3.960,7.326,-36.896,-0.030,1.009,-0.131,-3.754,0.366,0.458,73.333,31095.000,1.000
21.363,10.819,1.512,10.852,-7.571,-7.566,8.443,-40.899,-0.032,1.005,-0.133,-3.784,0.275,0.397,73.333,31096.000,1.000
24.008,15.620,7.014,16.472,-1.573,-9.062,9.264,-41.095,-0.033,1.004,-0.134,-3.693,0.122,0.366,73.333,31097.000,1.000
26.592,20.517,13.179,22.043,6.173,-7.134,11.836,-35.677,-0.036,1.005,-0.132,-3.632,0.092,0.336,73.333,31098.000,1.000
28.001,24.103,18.697,26.565,14.415,-2.916,15.242,-25.166,-0.035,1.008,-0.130,-3.448,-0.031,0.336,73.333,31099.000,1.000
26.617,24.685,22.054,28.833,21.261,1.171,16.692,-11.899,-0.034,1.008,-0.130,-3.418,-0.061,0.214,73.333,31100.000,1.000
22.545,22.478,22.456,28.401,25.284,3.748,15.164,1.674,-0.033,1.008,-0.130,-3.326,-0.153,0.244,73.333,31101.000,1.000
17.897,19.585,20.219,25.918,26.255,5.139,12.732,13.969,-0.033,1.007,-0.134,-3.326,-0.336,0.305,73.333,31102.000,1.000
14.568,17.513,16.038,22.355,24.751,5.781,11.888,23.789,-0.032,1.008,-0.131,-3.296,-0.397,0.305,73.333,31103.000,1.000
12.509,15.590,10.139,18.246,21.379,4.905,12.774,29.798,-0.032,1.006,-0.133,-3.113,-0.519,0.397,73.333,31104.000,1.000
10.622,12.387,2.486,13.831,16.598,1.334,13.916,31.107,-0.030,1.006,-0.131,-3.113,-0.610,0.488,73.333,31105.000,1.000
8.674,8.119,-6.383,9.597,11.054,-4.789,14.781,28.250,-0.029,1.006,-0.131,-3.052,-0.610,0.549,73.333,31106.000,1.000
7.628,4.850,-15.016,6.324,5.733,-11.654,16.401,23.143,-0.027,1.008,-0.134,-3.021,-0.641,0.610,73.333,31107.000,1.000
8.086,4.181,-21.540,4.496,1.641,-17.204,19.327,17.873,-0.026,1.010,-0.135,-2.899,-0.671,0.824,73.333,31108.000,1.000
8.930,5.184,-24.628,3.651,-0.847,-20.726,21.763,13.362,-0.025,1.010,-0.136,-2.930,-0.549,0.977,73.333,31109.000,1.000
8.192,5.324,-24.094,2.617,-2.248,-22.708,20.842,9.228,-0.023,1.012,-0.133,-2.808,-0.549,1.068,73.333,31110.000,1.000
5.354,3.390,-20.514,0.680,-3.248,-23.271,15.888,4.963,-0.026,1.009,-0.137,-2.808,-0.519,1.282,73.333,31111.000,1.000
1.938,0.545,-14.583,-1.755,-3.921,-21.598,9.335,0.839,-0.028,1.010,-0.135,-2.655,-0.366,1.343,73.333,31112.000,1.000
-0.325,-1.546,-6.974,-3.671,-3.745,-17.082,4.186,-2.291,-0.030,1.008,-0.136,-2.747,-0.427,1.434,73.333,31113.000,1.000
-1.093,-2.536,1.458,-4.297,-2.139,-10.244,1.494,-3.629,-0.030,1.007,-0.136,-2.716,-0.580,1.373,73.333,31114.000,1.000
-1.246,-3.202,9.374,-3.713,0.809,-2.480,0.496,-3.089,-0.032,1.006,-0.136,-2.563,-0.641,1.404,73.333,31115.000,1.000
-1.752,-4.184,14.969,-2.915,3.927,4.599,0.376,-1.755,-0.033,1.003,-0.135,-2.441,-0.702,1.343,73.333,31116.000,1.000
-2.866,-5.290,16.826,-3.061,5.585,9.684,1.218,-1.546,-0.032,1.002,-0.134,-2.258,-0.732,1.312,73.333,31117.000,1.000
-4.159,-5.932,15.015,-4.437,4.969,11.996,3.177,-4.133,-0.030,1.002,-0.137,-2.106,-0.885,1.251,73.333,31118.000,1.000
-4.938,-5.773,11.183,-6.168,2.683,11.383,5.530,-9.956,-0.032,1.003,-0.137,-2.045,-0.793,1.190,73.333,31119.000,1.000
-4.415,-4.585,7.500,-6.906,0.217,8.492,7.363,-17.992,-0.031,1.005,-0.136,-1.892,-0.854,1.099,73.333,31120.000,1.000
-1.888,-1.862,5.452,-5.839,-1.074,4.840,8.951,-26.186,-0.032,1.007,-0.138,-1.709,-1.038,0.946,73.333,31121.000,1.000
2.588,2.671,5.243,-3.254,-0.708,2.194,11.509,-32.330,-0.030,1.010,-0.141,-1.678,-1.099,0.763,73.333,31122.000,1.000
7.505,7.972,6.078,-0.301,0.842,1.204,15.192,-35.269,-0.028,1.012,-0.139,-1.770,-0.977,0.702,73.333,31123.000,1.000
10.405,11.792,7.085,1.859,2.748,0.920,18.088,-35.410,-0.026,1.015,-0.139,-1.953,-0.916,0.488,73.333,31124.000,1.000
9.745,12.641,8.200,2.926,4.681,0.309,18.123,-33.551,-0.025,1.019,-0.143,-2.075,-0.977,0.427,73.333,31125.000,1.000
6.269,11.469,10.132,3.600,7.119,-0.070,15.681,-29.381,-0.023,1.019,-0.144,-2.197,-0.885,0.366,73.333,31126.000,1.000
2.170,10.698,13.386,4.805,10.745,1.438,13.303,-21.649,-0.021,1.023,-0.141,-2.441,-0.793,0.427,73.333,31127.000,1.000
-1.014,11.506,17.356,6.812,15.567,5.501,12.698,-9.797,-0.020,1.021,-0.140,-2.563,-0.610,0.336,73.333,31128.000,1.000
-3.401,12.547,20.326,9.016,20.572,10.591,12.803,4.758,-0.019,1.022,-0.138,-2.747,-0.488,0.427,73.333,31129.000,1.000
-5.800,11.621,20.436,10.430,24.231,14.032,11.254,19.063,-0.019,1.020,-0.135,-2.869,-0.336,0.519,73.333,31130.000,1.000
-8.097,8.388,16.949,10.490,25.507,14.396,7.544,30.555,-0.020,1.019,-0.135,-3.113,-0.153,0.549,73.333,31131.000,1.000
-9.215,4.854,10.757,9.350,24.398,12.536,3.949,38.414,-0.021,1.015,-0.136,-3.418,-0.122,0.610,73.333,31132.000,1.000
-8.791,3.013,3.695,7.369,21.506,10.051,2.861,42.896,-0.019,1.014,-0.136,-3.540,0.031,0.732,73.333,31133.000,1.000
-8.061,2.748,-2.497,4.664,17.440,7.565,3.992,44.162,-0.022,1.012,-0.136,-3.632,0.275,0.763,73.333,31134.000,1.000
-8.554,2.473,-6.674,1.355,12.786,5.065,5.084,42.383,-0.023,1.009,-0.135,-3.662,0.458,0.702,73.333,31135.000,1.000
-10.451,1.114,-8.328,-2.128,8.251,3.097,4.907,38.399,-0.024,1.007,-0.135,-3.876,0.519,0.732,73.333,31136.000,1.000
-12.654,-1.125,-7.545,-5.213,4.449,2.687,4.523,33.510,-0.027,1.005,-0.135,-3.998,0.580,0.671,73.333,31137.000,1.000
-14.212,-3.728,-4.968,-7.540,1.585,4.053,5.352,28.515,-0.030,1.002,-0.136,-3.937,0.671,0.793,73.333,31138.000,1.000
-15.182,-6.759,-1.511,-9.012,-0.459,6.024,6.908,23.318,-0.031,1.002,-0.134,-3.876,0.702,0.763,73.333,31139.000,1.000
-15.939,-10.198,2.202,-9.502,-1.683,7.294,7.419,17.729,-0.032,1.002,-0.137,-3.784,0.702,0.671,73.333,31140.000,1.000
-16.107,-12.898,6.048,-8.776,-1.855,7.998,6.300,12.345,-0.033,1.002,-0.136,-3.784,0.641,0.610,73.333,31141.000,1.000
-14.834,-13.274,9.956,-6.815,-0.908,9.391,4.870,8.271,-0.034,1.002,-0.134,-3.632,0.458,0.580,73.333,31142.000,1.000
-12.076,-11.139,13.555,-4.050,0.847,12.047,4.474,6.038,-0.034,1.002,-0.135,-3.632,0.397,0.610,73.333,31143.000,1.000
-9.092,-8.223,16.393,-1.202,2.911,14.887,4.701,4.937,-0.033,1.003,-0.132,-3.540,0.397,0.488,73.333,31144.000,1.000
-7.390,-6.565,18.253,1.042,4.799,16.180,4.062,3.471,-0.033,1.004,-0.131,-3.571,0.336,0.397,73.333,31145.000,1.000
-7.277,-6.541,19.159,2.292,6.095,15.293,2.243,0.538,-0.032,1.004,-0.131,-3.540,0.244,0.427,73.333,31146.000,1.000
-7.683,-6.730,19.271,2.584,6.551,13.085,0.905,-3.899,-0.032,1.004,-0.130,-3.448,0.092,0.244,73.333,31147.000,1.000
-7.423,-5.749,18.806,2.288,6.216,10.622,1.752,-9.146,-0.032,1.005,-0.129,-3.357,0.031,0.305,73.333,31148.000,1.000
-6.300,-3.748,17.944,1.841,5.439,8.090,4.432,-14.336,-0.030,1.007,-0.129,-3.326,-0.061,0.305,73.333,31149.000,1.000
-4.876,-1.753,16.730,1.527,4.724,5.276,7.146,-18.511,-0.029,1.010,-0.129,-3.387,-0.153,0.427,73.333,31150.000,1.000
-3.623,-0.133,15.021,1.431,4.504,2.592,8.964,-20.583,-0.029,1.010,-0.129,-3.571,0.092,0.397,73.333,31151.000,1.000
-2.698,1.547,12.475,1.503,4.951,0.866,10.521,-19.772,-0.028,1.009,-0.126,-3.510,-0.031,0.427,73.333,31152.000,1.000
-2.310,3.381,8.796,1.665,5.994,0.219,12.402,-16.113,-0.029,1.012,-0.129,-3.418,0.000,0.671,73.333,31153.000,1.000
-2.775,4.633,4.193,1.965,7.535,-0.256,13.773,-10.330,-0.030,1.010,-0.127,-3.479,-0.031,0.732,73.333,31154.000,1.000
-3.975,4.627,-0.592,2.531,9.452,-1.505,13.169,-3.296,-0.031,1.010,-0.127,-3.571,-0.092,0.824,73.333,31155.000,1.000
-5.104,3.639,-4.862,3.227,11.281,-3.542,10.352,4.194,-0.032,1.010,-0.129,-3.601,-0.122,1.038,73.333,31156.000,1.000
-5.359,2.451,-8.402,3.542,12.237,-5.624,6.736,11.352,-0.031,1.012,-0.127,-3.571,-0.092,1.007,73.333,31157.000,1.000
-4.850,1.274,-11.248,3.079,11.851,-7.173,3.817,17.500,-0.034,1.012,-0.130,-3.662,-0.153,1.129,73.333,31158.000,1.000
-4.738,-0.658,-13.591,1.817,10.234,-8.538,1.535,22.110,-0.034,1.008,-0.134,-3.632,-0.214,1.160,73.333,31159.000,1.000
-6.299,-4.209,-16.059,-0.232,7.511,-10.777,-1.318,24.614,-0.034,1.006,-0.130,-3.510,-0.244,1.282,73.333,31160.000,1.000
-9.557,-8.903,-19.405,-3.180,3.490,-14.348,-5.042,24.560,-0.036,1.004,-0.129,-3.479,-0.305,1.343,73.333,31161.000,1.000
-13.200,-12.955,-23.642,-7.061,-1.948,-18.288,-8.286,22.036,-0.037,1.004,-0.132,-3.326,-0.427,1.465,73.333,31162.000,1.000
-16.157,-15.183,-27.732,-11.710,-8.376,-21.017,-9.780,17.740,-0.035,1.004,-0.136,-3.143,-0.549,1.495,73.333,31163.000,1.000
-18.689,-16.218,-30.094,-16.713,-14.751,-21.455,-9.946,12.747,-0.035,1.006,-0.133,-2.960,-0.793,1.648,73.333,31164.000,1.000
-21.660,-17.444,-29.356,-21.387,-19.803,-19.078,-10.120,8.248,-0.034,1.006,-0.133,-2.899,-0.793,1.648,73.333,31165.000,1.000
-24.958,-19.028,-24.867,-24.859,-22.485,-13.385,-10.444,5.339,-0.035,1.008,-0.134,-2.655,-0.977,1.709,73.333,31166.000,1.000
-27.091,-19.485,-16.884,-26.261,-22.241,-4.062,-9.317,4.734,-0.035,1.010,-0.131,-2.502,-1.221,1.831,73.333,31167.000,1.000
-26.771,-17.594,-6.752,-25.301,-19.369,7.784,-5.603,6.159,-0.034,1.009,-0.132,-2.441,-1.343,1.892,73.333,31168.000,1.000
-24.548,-14.320,2.988,-22.774,-15.293,18.859,-0.941,7.913,-0.034,1.010,-0.132,-2.380,-1.465,1.984,73.333,31169.000,1.000
-22.290,-12.174,9.286,-20.242,-12.113,25.087,1.291,7.577,-0.035,1.010,-0.131,-2.319,-1.465,1.984,73.333,31170.000,1.000
-21.248,-12.774,10.194,-18.975,-11.413,24.423,-0.583,3.615,-0.034,1.010,-0.129,-2.106,-1.587,1.984,73.333,31171.000,1.000
-21.014,-15.446,6.274,-18.992,-13.174,18.321,-4.901,-3.545,-0.030,1.010,-0.127,-2.045,-1.770,2.075,73.333,31172.000,1.000
-20.279,-18.096,0.487,-18.990,-15.679,10.462,-8.624,-11.777,-0.030,1.011,-0.127,-2.167,-1.801,2.136,73.333,31173.000,1.000
-18.137,-18.992,-3.519,-17.316,-16.567,4.251,-10.149,-18.447,-0.028,1.012,-0.128,-2.106,-1.862,2.075,73.333,31174.000,1.000
-14.354,-17.386,-3.416,-13.059,-14.224,1.457,-9.699,-21.640,-0.027,1.011,-0.131,-1.892,-1.984,2.289,73.333,31175.000,1.000
-8.862,-13.016,0.840,-6.516,-8.607,2.343,-7.671,-20.798,-0.024,1.010,-0.133,-1.923,-2.014,2.411,73.333,31176.000,1.000
-2.031,-6.283,7.255,0.854,-1.259,5.916,-3.966,-16.711,-0.024,1.011,-0.132,-1.953,-2.014,2.411,73.333,31177.000,1.000
4.483,0.872,12.674,6.816,5.332,9.931,0.718,-11.085,-0.023,1.011,-0.134,-1.984,-2.045,2.411,73.333,31178.000,1.000
8.097,5.357,14.145,9.319,8.892,11.645,4.146,-5.740,-0.023,1.010,-0.134,-1.953,-1.923,2.319,73.333,31179.000,1.000
7.396,5.260,10.454,7.798,8.615,9.632,4.366,-1.594,-0.020,1.010,-0.134,-1.984,-1.923,2.258,73.333,31180.000,1.000
3.980,2.014,2.979,3.899,5.792,5.240,2.345,1.957,-0.017,1.009,-0.136,-1.862,-1.801,2.106,73.333,31181.000,1.000
1.653,-0.432,-5.037,0.633,3.085,1.787,1.642,6.494,-0.015,1.010,-0.135,-1.953,-1.678,2.045,73.333,31182.000,1.000
3.030,0.631,-10.698,0.169,2.560,1.552,4.587,12.851,-0.013,1.011,-0.134,-1.984,-1.526,2.014,73.333,31183.000,1.000
7.032,3.922,-13.444,2.128,4.034,3.483,9.349,19.772,-0.014,1.011,-0.134,-1.923,-1.434,2.014,73.333,31184.000,1.000
10.078,5.598,-14.980,4.070,5.347,4.258,11.653,24.629,-0.014,1.013,-0.134,-1.953,-1.282,1.953,73.333,31185.000,1.000
9.396,2.933,-17.511,3.563,4.179,1.382,8.908,25.428,-0.019,1.012,-0.135,-1.892,-1.129,1.831,73.333,31186.000,1.000
4.922,-3.784,-21.992,-0.107,-0.287,-4.979,2.014,22.063,-0.021,1.012,-0.131,-2.075,-1.007,1.556,73.333,31187.000,1.000
-1.356,-12.169,-27.379,-5.633,-6.841,-12.511,-6.266,16.161,-0.017,1.011,-0.135,-2.136,-0.854,1.282,73.333,31188.000,1.000
-7.178,-19.680,-31.276,-10.743,-13.148,-18.529,-13.827,9.892,-0.019,1.010,-0.136,-2.380,-0.763,1.251,73.333,31189.000,1.000
-11.280,-24.778,-31.701,-13.873,-17.485,-21.519,-20.034,4.496,-0.020,1.009,-0.135,-2.380,-0.702,1.068,73.333,31190.000,1.000
-13.425,-26.838,-28.393,-14.992,-19.684,-21.407,-24.596,-0.135,-0.017,1.007,-0.138,-2.350,-0.519,0.824,73.333,31191.000,1.000
-13.841,-25.721,-22.522,-14.981,-20.463,-18.833,-26.756,-4.475,-0.014,1.009,-0.136,-2.350,-0.366,0.641,73.333,31192.000,1.000
-13.120,-21.928,-15.552,-14.628,-20.338,-14.639,-26.227,-8.389,-0.014,1.008,-0.137,-2.411,-0.366,0.427,73.333,31193.000,1.000
-12.284,-16.818,-8.495,-14.245,-19.356,-9.763,-24.184,-11.260,-0.012,1.010,-0.135,-2.472,-0.214,0.305,73.333,31194.000,1.000
-12.039,-11.879,-1.841,-13.724,-17.450,-4.967,-22.229,-12.692,-0.014,1.013,-0.136,-2.472,0.061,0.153,73.333,31195.000,1.000
-11.861,-7.599,3.955,-12.762,-14.845,-0.519,-20.580,-12.985,-0.015,1.015,-0.135,-2.441,0.153,0.031,73.333,31196.000,1.000
-10.463,-3.543,8.073,-11.264,-12.214,3.491,-18.116,-13.168,-0.016,1.014,-0.134,-2.655,0.305,-0.061,73.333,31197.000,1.000
-7.380,0.356,9.714,-9.525,-10.366,6.395,-14.379,-14.589,-0.016,1.014,-0.136,-2.716,0.458,0.061,73.333,31198.000,1.000
-3.537,3.193,8.972,-7.805,-9.550,6.917,-10.841,-18.080,-0.016,1.015,-0.137,-2.838,0.702,-0.031,73.333,31199.000,1.000
0.065,4.248,7.228,-5.730,-8.976,4.461,-9.448,-23.130,-0.014,1.015,-0.137,-2.930,0.824,-0.092,73.333,31200.000,1.000
3.727,4.409,6.550,-2.415,-7.217,0.205,-10.132,-27.990,-0.015,1.013,-0.137,-2.930,0.946,-0.061,73.333,31201.000,1.000
8.521,5.693,8.444,2.704,-3.241,-3.655,-10.661,-30.793,-0.017,1.012,-0.136,-3.021,1.038,0.000,73.333,31202.000,1.000
14.514,9.150,12.981,9.303,2.974,-5.625,-9.155,-30.421,-0.019,1.011,-0.136,-3.174,1.068,0.000,73.333,31203.000,1.000
20.008,13.615,18.745,16.242,10.541,-5.664,-6.084,-26.489,-0.022,1.011,-0.137,-3.174,1.099,0.153,73.333,31204.000,1.000
22.682,16.713,23.379,21.851,17.927,-4.583,-3.494,-19.204,-0.026,1.011,-0.136,-3.174,1.129,0.275,73.333,31205.000,1.000
21.474,16.951,24.688,24.484,23.412,-2.970,-2.606,-9.385,-0.029,1.011,-0.134,-3.143,1.129,0.214,73.333,31206.000,1.000
17.396,14.860,21.947,23.465,25.956,-0.714,-2.612,1.734,-0.031,1.009,-0.136,-3.143,1.068,0.153,73.333,31207.000,1.000
12.549,12.193,16.438,19.629,25.777,2.312,-2.043,12.782,-0.032,1.011,-0.134,-3.113,0.977,0.092,73.333,31208.000,1.000
8.364,10.105,10.447,14.612,23.862,5.275,-0.944,22.236,-0.033,1.011,-0.136,-3.113,0.916,0.122,73.333,31209.000,1.000
4.864,8.269,5.391,9.482,20.808,6.513,-0.995,28.496,-0.035,1.010,-0.136,-3.174,0.732,0.092,73.333,31210.000,1.000
1.459,5.728,0.911,4.207,16.328,4.812,-3.368,30.456,-0.035,1.012,-0.135,-3.143,0.519,0.092,73.333,31211.000,1.000
-1.985,2.197,-4.152,-1.623,9.951,0.398,-7.185,28.177,-0.034,1.012,-0.136,-3.143,0.305,0.092,73.333,31212.000,1.000
-5.195,-1.894,-10.125,-7.849,2.048,-5.368,-10.658,22.964,-0.035,1.011,-0.132,-3.174,0.092,0.122,73.333,31213.000,1.000
-8.128,-6.259,-15.956,-13.528,-5.937,-10.990,-13.248,16.838,-0.036,1.012,-0.134,-3.143,-0.092,0.092,73.333,31214.000,1.000
-10.815,-10.797,-20.076,-17.451,-12.221,-15.249,-15.732,11.768,-0.036,1.011,-0.134,-3.235,-0.183,0.000,73.333,31215.000,1.000
-12.795,-14.787,-21.520,-18.933,-15.777,-17.051,-18.365,8.827,-0.035,1.010,-0.137,-3.235,-0.488,0.092,73.333,31216.000,1.000
-13.348,-16.911,-20.165,-18.264,-16.796,-15.657,-20.191,7.705,-0.035,1.008,-0.135,-3.326,-0.580,0.092,73.333,31217.000,1.000
-12.333,-16.507,-16.251,-16.381,-16.126,-11.347,-20.477,7.160,-0.034,1.008,-0.131,-3.204,-0.732,0.092,73.333,31218.000,1.000
-10.538,-14.424,-10.116,-14.164,-14.463,-5.510,-20.034,6.079,-0.032,1.008,-0.132,-3.235,-0.885,0.122,73.333,31219.000,1.000
-9.157,-12.331,-2.597,-12.235,-12.312,0.119,-20.546,3.966,-0.030,1.008,-0.131,-3.174,-0.885,0.336,73.333,31220.000,1.000
-8.836,-11.191,4.628,-11.182,-10.475,4.396,-22.617,0.753,-0.031,1.007,-0.133,-3.174,-0.946,0.336,73.333,31221.000,1.000
-9.181,-10.558,9.688,-11.397,-9.907,7.201,-24.884,-3.256,-0.031,1.007,-0.131,-3.082,-1.129,0.488,73.333,31222.000,1.000
-9.306,-9.453,11.686,-12.671,-10.970,9.080,-25.459,-7.414,-0.031,1.007,-0.131,-3.174,-1.160,0.519,73.333,31223.000,1.000
-8.667,-7.440,11.312,-14.112,-12.914,10.584,-23.867,-11.075,-0.031,1.007,-0.132,-3.174,-1.160,0.702,73.333,31224.000,1.000
-7.121,-4.502,10.451,-14.422,-14.134,12.078,-20.957,-13.958,-0.031,1.007,-0.131,-3.082,-1.343,0.885,73.333,31225.000,1.000
-4.426,-0.293,10.947,-12.493,-13.099,13.947,-17.162,-16.141,-0.029,1.006,-0.134,-2.991,-1.434,0.916,73.333,31226.000,1.000
-0.098,5.834,13.505,-7.989,-9.193,16.607,-11.733,-17.669,-0.029,1.004,-0.136,-3.021,-1.343,0.977,73.333,31227.000,1.000
5.871,13.665,17.507,-1.517,-2.878,19.885,-4.257,-18.339,-0.027,1.006,-0.134,-2.930,-1.373,0.977,73.333,31228.000,1.000
12.075,21.048,21.268,5.451,4.417,22.319,3.539,-18.122,-0.026,1.007,-0.133,-2.930,-1.404,1.007,73.333,31229.000,1.000
16.200,24.842,22.602,11.009,10.680,21.856,8.653,-17.350,-0.025,1.006,-0.133,-2.869,-1.312,0.977,73.333,31230.000,1.000
16.977,23.624,20.176,13.843,14.358,17.830,9.755,-16.107,-0.028,1.006,-0.132,-2.869,-1.373,0.977,73.333,31231.000,1.000
15.151,19.022,14.738,14.045,15.319,11.830,8.349,-13.889,-0.028,1.008,-0.134,-2.930,-1.404,0.946,73.333,31232.000,1.000
12.408,14.034,8.877,12.896,14.788,6.318,6.651,-10.125,-0.028,1.007,-0.135,-2.930,-1.343,0.916,73.333,31233.000,1.000
9.990,10.663,5.395,11.971,14.386,2.846,5.240,-4.847,-0.025,1.007,-0.136,-2.991,-1.373,1.007,73.333,31234.000,1.000
8.566,9.449,5.609,12.256,15.030,1.663,3.502,1.217,-0.027,1.006,-0.134,-2.869,-1.434,1.007,73.333,31235.000,1.000
8.737,10.367,8.640,13.646,16.322,2.332,1.685,7.041,-0.026,1.007,-0.132,-2.960,-1.434,1.038,73.333,31236.000,1.000
10.720,12.909,11.731,14.862,16.631,3.836,1.170,11.582,-0.027,1.007,-0.134,-2.747,-1.343,0.824,73.333,31237.000,1.000
13.381,15.205,11.452,14.015,13.912,4.182,2.397,13.760,-0.026,1.007,-0.133,-2.808,-1.434,0.793,73.333,31238.000,1.000
14.476,14.353,5.613,9.905,7.158,1.048,3.712,12.837,-0.026,1.010,-0.136,-2.777,-1.404,0.763,73.333,31239.000,1.000
12.584,8.757,-5.244,3.108,-2.591,-6.202,3.261,9.305,-0.023,1.012,-0.134,-2.777,-1.312,0.702,73.333,31240.000,1.000
8.568,0.023,-18.075,-4.339,-12.729,-15.261,1.597,5.125,-0.022,1.013,-0.132,-2.777,-1.190,0.671,73.333,31241.000,1.000
4.735,-8.133,-29.057,-10.344,-20.637,-22.136,1.431,2.607,-0.023,1.013,-0.131,-2.747,-1.038,0.549,73.333,31242.000,1.000
2.512,-13.005,-35.390,-13.995,-25.055,-24.027,4.409,2.729,-0.023,1.014,-0.132,-2.869,-1.007,0.549,73.333,31243.000,1.000
1.217,-14.748,-36.174,-15.756,-26.370,-21.110,8.762,4.446,-0.023,1.014,-0.133,-2.930,-0.916,0.641,73.333,31244.000,1.000
-0.650,-15.190,-32.186,-16.565,-25.773,-15.600,10.963,5.833,-0.021,1.014,-0.133,-2.930,-0.793,0.580,73.333,31245.000,1.000
-3.325,-15.419,-25.216,-16.837,-24.201,-9.558,9.418,5.826,-0.021,1.012,-0.135,-3.113,-0.763,0.549,73.333,31246.000,1.000
-5.515,-14.982,-17.430,-16.256,-21.967,-4.016,5.765,4.641,-0.021,1.011,-0.134,-3.052,-0.610,0.610,73.333,31247.000,1.000
-5.934,-13.085,-10.610,-14.204,-18.964,0.378,2.678,2.962,-0.018,1.010,-0.136,-3.113,-0.458,0.702,73.333,31248.000,1.000
-4.611,-9.943,-5.506,-10.361,-15.117,2.841,1.105,1.159,-0.018,1.011,-0.135,-2.991,-0.336,0.702,73.333,31249.000,1.000
-2.662,-6.580,-1.915,-5.239,-10.847,2.894,0.056,-0.971,-0.020,1.014,-0.133,-2.960,-0.214,0.702,73.333,31250.000,1.000
-1.029,-3.480,0.739,-0.114,-7.088,1.149,-1.331,-3.940,-0.019,1.014,-0.134,-3.021,-0.092,0.763,73.333,31251.000,1.000
0.415,0.020,3.053,3.873,-4.569,-0.687,-2.281,-7.921,-0.021,1.013,-0.134,-3.021,0.092,0.702,73.333,31252.000,1.000
2.419,4.677,5.531,6.545,-3.173,-0.961,-1.337,-12.453,-0.024,1.013,-0.132,-3.082,0.275,0.732,73.333,31253.000,1.000
5.157,10.007,8.345,8.500,-2.197,0.600,1.554,-16.910,-0.023,1.010,-0.132,-3.082,0.275,0.793,73.333,31254.000,1.000
7.939,14.549,11.179,10.260,-1.089,2.954,4.796,-20.929,-0.022,1.008,-0.131,-3.021,0.336,0.763,73.333,31255.000,1.000
10.021,17.329,13.320,11.745,0.176,4.998,7.113,-24.151,-0.026,1.010,-0.131,-2.930,0.519,0.763,73.333,31256.000,1.000
11.195,18.522,13.863,12.504,1.291,6.318,8.860,-25.875,-0.027,1.009,-0.133,-2.960,0.519,0.793,73.333,31257.000,1.000
11.651,18.810,12.228,12.492,2.196,6.874,10.972,-25.221,-0.027,1.007,-0.132,-2.930,0.641,0.824,73.333,31258.000,1.000
11.723,18.639,8.818,12.533,3.467,6.566,13.348,-21.633,-0.027,1.009,-0.129,-3.021,0.702,0.763,73.333,31259.000,1.000
11.847,18.175,4.907,13.747,5.920,5.322,14.963,-15.256,-0.026,1.008,-0.133,-2.808,0.610,0.824,73.333,31260.000,1.000
12.438,17.544,1.552,16.409,9.712,3.298,15.328,-6.962,-0.027,1.007,-0.132,-2.716,0.549,0.732,73.333,31261.000,1.000
13.538,16.812,-1.176,19.614,13.972,0.751,15.140,1.900,-0.028,1.009,-0.133,-2.747,0.549,0.671,73.333,31262.000,1.000
14.509,15.699,-3.905,22.037,17.298,-2.265,15.173,9.892,-0.029,1.009,-0.130,-2.716,0.610,0.702,73.333,31263.000,1.000
14.241,13.392,-7.399,22.663,18.343,-6.050,14.862,15.724,-0.029,1.010,-0.130,-2.716,0.641,0.732,73.333,31264.000,1.000
12.013,9.118,-12.216,20.969,16.128,-10.910,12.790,18.405,-0.031,1.013,-0.127,-2.625,0.641,0.732,73.333,31265.000,1.000
8.422,3.275,-18.269,16.995,10.406,-16.446,8.817,17.654,-0.031,1.013,-0.131,-2.686,0.671,0.732,73.333,31266.000,1.000
5.094,-2.476,-24.487,11.387,2.028,-21.380,4.883,14.228,-0.032,1.013,-0.128,-2.777,0.549,0.763,73.333,31267.000,1.000
3.222,-6.629,-29.019,5.237,-7.092,-24.243,3.143,9.651,-0.031,1.012,-0.129,-3.021,0.519,0.854,73.333,31268.000,1.000
2.579,-8.950,-30.009,-0.260,-14.582,-24.042,3.891,5.596,-0.032,1.013,-0.128,-2.991,0.427,0.885,73.333,31269.000,1.000
2.149,-9.973,-26.555,-4.185,-18.629,-20.345,5.829,3.285,-0.031,1.011,-0.129,-3.021,0.397,0.824,73.333,31270.000,1.000
1.541,-9.756,-19.160,-6.132,-18.758,-13.062,8.071,3.208,-0.031,1.012,-0.130,-2.960,0.244,0.793,73.333,31271.000,1.000
1.335,-7.795,-9.393,-6.236,-15.835,-2.618,11.123,5.120,-0.029,1.011,-0.131,-2.991,0.305,0.793,73.333,31272.000,1.000
1.770,-4.440,0.633,-5.219,-11.580,9.211,15.228,7.843,-0.029,1.011,-0.131,-2.960,0.275,0.854,73.333,31273.000,1.000
1.588,-1.811,8.625,-4.411,-8.064,18.998,18.309,9.120,-0.028,1.011,-0.132,-2.960,0.305,0.885,73.333,31274.000,1.000
-0.920,-2.354,12.813,-5.185,-6.937,23.385,17.124,6.656,-0.028,1.010,-0.134,-3.052,0.336,1.038,73.333,31275.000,1.000
-5.749,-6.400,12.922,-7.932,-8.471,21.623,10.797,-0.045,-0.028,1.009,-0.135,-2.991,0.244,1.068,73.333,31276.000,1.000
-10.775,-11.670,10.402,-11.649,-11.343,16.048,2.087,-9.165,-0.028,1.008,-0.133,-3.082,0.244,1.251,73.333,31277.000,1.000
-13.649,-15.321,7.570,-14.622,-13.515,10.040,-5.237,-17.962,-0.028,1.007,-0.134,-3.082,0.275,1.129,73.333,31278.000,1.000
-13.606,-16.098,6.418,-15.447,-13.428,5.835,-9.478,-24.399,-0.026,1.009,-0.133,-2.960,0.183,1.007,73.333,31279.000,1.000
-11.268,-14.323,7.868,-13.554,-10.645,4.075,-11.070,-27.672,-0.026,1.009,-0.134,-2.899,0.214,1.129,73.333,31280.000,1.000
-7.330,-10.479,11.595,-9.299,-5.905,4.514,-10.494,-28.071,-0.027,1.008,-0.133,-2.960,0.214,1.099,73.333,31281.000,1.000
-2.161,-4.695,16.287,-3.878,-0.715,6.516,-7.386,-26.632,-0.026,1.009,-0.134,-2.991,0.183,1.007,73.333,31282.000,1.000
3.422,2.332,20.291,1.120,3.511,9.113,-1.865,-24.457,-0.026,1.010,-0.132,-2.838,0.183,1.007,73.333,31283.000,1.000
7.771,8.736,22.331,4.491,6.235,11.047,4.267,-22.037,-0.026,1.010,-0.131,-2.808,0.305,1.038,73.333,31284.000,1.000
9.364,12.542,21.867,5.911,7.856,11.286,8.544,-19.110,-0.025,1.009,-0.133,-2.869,0.183,0.977,73.333,31285.000,1.000
8.058,13.254,18.964,5.703,9.067,9.783,10.031,-14.987,-0.026,1.011,-0.134,-2.869,0.153,0.977,73.333,31286.000,1.000
5.022,11.908,13.966,4.270,10.177,7.500,9.895,-9.116,-0.025,1.010,-0.130,-2.808,0.183,1.007,73.333,31287.000,1.000
1.383,9.586,7.409,1.908,10.963,5.349,9.498,-1.692,-0.025,1.010,-0.131,-2.808,0.122,0.946,73.333,31288.000,1.000
-2.758,6.359,0.147,-1.002,10.973,3.260,8.424,6.123,-0.025,1.011,-0.132,-2.899,0.244,0.916,73.333,31289.000,1.000
-7.675,1.997,-6.754,-3.844,9.854,0.485,5.170,12.690,-0.026,1.011,-0.133,-2.899,0.275,0.946,73.333,31290.000,1.000
-12.678,-2.757,-12.437,-5.981,7.420,-3.318,-0.425,16.735,-0.024,1.010,-0.132,-2.930,0.336,0.854,73.333,31291.000,1.000
-16.105,-6.419,-16.655,-7.277,3.563,-7.675,-6.544,17.742,-0.026,1.011,-0.131,-2.930,0.305,0.854,73.333,31292.000,1.000
-16.888,-8.486,-19.740,-8.322,-1.728,-12.005,-11.572,15.755,-0.025,1.010,-0.130,-2.869,0.305,0.763,73.333,31293.000,1.000
-15.743,-10.319,-22.232,-9.999,-8.198,-16.186,-15.879,11.251,-0.026,1.011,-0.131,-2.869,0.244,0.671,73.333,31294.000,1.000
-14.395,-13.738,-24.413,-12.762,-15.165,-19.998,-20.539,5.393,-0.026,1.009,-0.131,-2.808,0.305,0.671,73.333,31295.000,1.000
-13.805,-18.779,-25.936,-16.257,-21.546,-22.350,-24.828,-0.001,-0.026,1.009,-0.128,-2.747,0.305,0.671,73.333,31296.000,1.000
-13.605,-23.432,-25.979,-19.590,-26.241,-21.749,-26.031,-3.248,-0.025,1.011,-0.131,-2.716,0.244,0.671,73.333,31297.000,1.000
-13.242,-25.830,-23.956,-22.034,-28.687,-17.767,-22.211,-3.783,-0.027,1.011,-0.130,-2.716,0.305,0.610,73.333,31298.000,1.000
-13.028,-26.068,-20.019,-23.465,-29.114,-11.784,-14.728,-2.450,-0.026,1.010,-0.130,-2.869,0.244,0.671,73.333,31299.000,1.000
-13.621,-25.431,-14.910,-24.195,-28.223,-5.974,-7.308,-0.863,-0.025,1.008,-0.131,-2.838,0.336,0.671,73.333,31300.000,1.000
-14.831,-24.451,-9.573,-24.531,-26.645,-1.551,-2.667,-0.255,-0.028,1.007,-0.130,-2.838,0.397,0.671,73.333,31301.000,1.000
-15.466,-22.391,-4.746,-24.486,-24.586,1.864,-0.699,-0.714,-0.027,1.007,-0.129,-2.808,0.305,0.641,73.333,31302.000,1.000
-14.352,-18.478,-0.482,-23.623,-21.691,5.327,0.184,-1.391,-0.027,1.006,-0.130,-2.869,0.183,0.702,73.333,31303.000,1.000
-11.223,-13.015,3.988,-21.180,-17.263,9.259,0.904,-1.439,-0.027,1.008,-0.131,-2.838,0.153,0.702,73.333,31304.000,1.000
-6.682,-7.068,9.506,-16.711,-10.993,13.045,1.318,-0.855,-0.026,1.006,-0.129,-2.777,0.153,0.854,73.333,31305.000,1.000
-1.588,-1.488,15.924,-10.771,-3.625,15.660,1.340,-0.540,-0.028,1.007,-0.130,-2.686,0.183,0.732,73.333,31306.000,1.000
3.299,3.357,21.914,-4.785,3.295,16.371,1.516,-1.721,-0.030,1.010,-0.128,-2.747,0.153,0.793,73.333,31307.000,1.000
7.045,6.849,25.690,-0.232,8.338,14.662,1.950,-5.329,-0.029,1.011,-0.133,-2.655,-0.031,0.763,73.333,31308.000,1.000
8.458,7.689,25.802,2.030,10.832,10.032,1.283,-11.429,-0.026,1.010,-0.131,-2.625,-0.031,0.732,73.333,31309.000,1.000
7.182,5.221,21.823,2.202,11.147,2.843,-1.861,-18.536,-0.028,1.013,-0.129,-2.716,0.000,0.732,73.333,31310.000,1.000
4.863,1.245,14.834,1.705,10.715,-4.730,-6.264,-23.566,-0.028,1.011,-0.132,-2.777,-0.092,0.671,73.333,31311.000,1.000
4.146,-0.669,6.949,2.357,11.270,-9.688,-8.363,-23.342,-0.028,1.012,-0.132,-2.960,-0.122,0.549,73.333,31312.000,1.000
6.255,1.802,0.003,4.937,13.552,-10.500,-5.647,-16.771,-0.027,1.011,-0.132,-2.930,-0.244,0.580,73.333,31313.000,1.000
10.156,7.950,-5.119,8.791,16.908,-8.097,0.891,-5.641,-0.028,1.013,-0.126,-2.869,-0.214,0.702,73.333,31314.000,1.000
14.045,15.223,-8.153,12.695,20.045,-4.715,7.914,6.561,-0.029,1.014,-0.128,-2.991,-0.305,0.702,73.333,31315.000,1.000
17.031,21.523,-9.200,15.680,21.872,-2.127,12.834,16.554,-0.025,1.014,-0.129,-2.991,-0.397,0.763,73.333,31316.000,1.000
19.198,26.054,-8.941,17.201,21.836,-1.030,15.318,22.449,-0.025,1.012,-0.130,-3.021,-0.488,0.763,73.333,31317.000,1.000
20.405,28.302,-8.616,17.065,19.917,-1.707,15.897,23.897,-0.027,1.013,-0.128,-2.991,-0.519,0.793,73.333,31318.000,1.000
19.718,27.175,-9.428,15.397,16.492,-4.484,14.176,21.723,-0.029,1.013,-0.132,-2.930,-0.610,0.763,73.333,31319.000,1.000
16.361,21.965,-11.860,12.612,12.117,-9.155,9.466,17.474,-0.029,1.012,-0.132,-2.869,-0.610,0.854,73.333,31320.000,1.000
11.087,13.932,-15.270,9.381,7.432,-14.261,2.868,12.982,-0.029,1.012,-0.126,-2.899,-0.641,0.793,73.333,31321.000,1.000
6.045,5.963,-18.126,6.423,3.038,-17.597,-2.668,9.714,-0.031,1.013,-0.124,-2.899,-0.641,0.732,73.333,31322.000,1.000
2.883,0.175,-18.980,4.039,-0.814,-17.958,-5.061,7.927,-0.030,1.011,-0.130,-2.899,-0.702,0.763,73.333,31323.000,1.000
1.427,-3.587,-17.343,2.051,-4.297,-16.087,-5.158,6.637,-0.027,1.010,-0.132,-2.808,-0.793,0.824,73.333,31324.000,1.000
0.683,-6.480,-13.734,0.419,-7.579,-13.569,-5.328,4.805,-0.026,1.009,-0.129,-2.899,-0.793,0.763,73.333,31325.000,1.000
0.570,-8.558,-9.264,-0.376,-10.528,-11.221,-6.494,2.333,-0.026,1.009,-0.130,-2.777,-0.885,0.671,73.333,31326.000,1.000
2.014,-8.594,-5.186,0.216,-12.858,-8.878,-7.206,-0.179,-0.027,1.009,-0.128,-2.838,-0.854,0.702,73.333,31327.000,1.000
5.528,-5.848,-2.414,2.135,-14.371,-6.409,-5.590,-2.329,-0.024,1.009,-0.127,-2.777,-0.946,0.885,73.333,31328.000,1.000
10.201,-1.484,-1.164,4.568,-15.014,-4.434,-1.645,-4.340,-0.024,1.009,-0.129,-2.686,-0.916,0.793,73.333,31329.000,1.000
14.431,2.329,-0.899,6.565,-14.742,-3.734,3.029,-6.649,-0.025,1.007,-0.131,-2.625,-0.977,0.824,73.333,31330.000,1.000
17.456,4.634,-0.607,7.766,-13.399,-4.163,7.463,-9.431,-0.024,1.007,-0.132,-2.533,-0.854,1.007,73.333,31331.000,1.000
19.666,6.275,0.649,8.484,-10.861,-4.671,12.161,-12.629,-0.023,1.008,-0.134,-2.441,-0.824,1.129,73.333,31332.000,1.000
21.451,8.127,3.260,9.243,-7.219,-4.390,17.409,-16.071,-0.024,1.009,-0.134,-2.350,-0.732,1.251,73.333,31333.000,1.000
22.345,9.572,6.902,10.391,-2.763,-3.351,21.766,-19.310,-0.025,1.010,-0.131,-2.411,-0.763,1.282,73.333,31334.000,1.000
21.639,9.323,10.711,12.031,2.148,-2.081,23.201,-21.365,-0.027,1.010,-0.135,-2.289,-0.702,1.343,73.333,31335.000,1.000
19.526,7.272,13.603,14.040,7.110,-0.823,21.454,-20.846,-0.028,1.009,-0.135,-2.289,-0.793,1.404,73.333,31336.000,1.000
17.115,4.696,14.622,15.980,11.610,0.552,18.402,-16.656,-0.028,1.006,-0.133,-2.136,-0.793,1.495,73.333,31337.000,1.000
15.223,2.620,13.315,17.141,15.108,1.942,15.927,-8.831,-0.028,1.005,-0.134,-2.106,-0.732,1.404,73.333,31338.000,1.000
13.543,0.681,9.990,16.954,17.305,2.669,13.966,1.262,-0.028,1.002,-0.132,-1.953,-0.885,1.526,73.333,31339.000,1.000
11.376,-1.934,5.599,15.454,18.273,2.066,11.162,11.541,-0.027,1.000,-0.135,-1.892,-0.793,1.434,73.333,31340.000,1.000
9.012,-4.677,1.271,13.365,18.320,0.466,7.322,20.200,-0.028,1.000,-0.137,-1.617,-0.763,1.343,73.333,31341.000,1.000
7.840,-5.467,-2.055,11.767,17.876,-0.694,4.472,26.377,-0.027,1.002,-0.136,-1.495,-0.763,1.190,73.333,31342.000,1.000
8.957,-2.537,-3.606,11.687,17.564,-0.016,4.970,30.131,-0.026,1.005,-0.136,-1.312,-0.763,1.007,73.333,31343.000,1.000
11.988,3.706,-2.858,13.622,18.058,2.594,8.869,31.938,-0.026,1.009,-0.133,-1.434,-0.824,0.885,73.333,31344.000,1.000
15.302,10.718,-0.179,16.972,19.349,5.769,13.598,32.069,-0.024,1.011,-0.135,-1.465,-0.824,0.916,73.333,31345.000,1.000
17.318,15.773,2.852,20.034,20.316,7.748,16.324,30.368,-0.025,1.014,-0.134,-1.373,-0.824,0.702,73.333,31346.000,1.000
17.596,17.885,4.449,21.064,19.505,7.668,16.311,26.651,-0.022,1.017,-0.136,-1.556,-0.793,0.641,73.333,31347.000,1.000
16.512,17.620,3.985,19.417,16.328,5.783,14.477,21.136,-0.022,1.018,-0.135,-1.892,-0.763,0.427,73.333,31348.000,1.000
14.202,15.523,2.262,15.722,11.389,2.746,11.223,14.319,-0.020,1.019,-0.135,-1.953,-0.671,0.458,73.333,31349.000,1.000
10.468,11.707,0.664,11.275,5.935,-0.793,6.067,6.789,-0.020,1.021,-0.135,-2.136,-0.580,0.427,73.333,31350.000,1.000
5.555,6.740,0.128,7.285,1.108,-3.911,-0.605,-0.657,-0.021,1.023,-0.137,-2.411,-0.519,0.458,73.333,31351.000,1.000
0.419,1.917,0.694,4.413,-2.487,-5.443,-6.772,-7.046,-0.020,1.020,-0.137,-2.502,-0.275,0.488,73.333,31352.000,1.000
-3.773,-1.577,1.915,2.899,-4.625,-4.763,-10.361,-11.649,-0.017,1.019,-0.134,-2.777,-0.122,0.580,73.333,31353.000,1.000
-6.163,-3.363,3.563,3.026,-5.033,-2.378,-11.056,-14.315,-0.016,1.020,-0.135,-2.930,0.061,0.610,73.333,31354.000,1.000
-6.265,-3.591,5.810,5.175,-3.392,0.518,-9.979,-15.377,-0.016,1.017,-0.135,-3.113,0.031,0.641,73.333,31355.000,1.000
-3.800,-2.148,8.759,9.276,0.147,3.073,-7.845,-15.376,-0.017,1.015,-0.135,-3.296,0.305,0.641,73.333,31356.000,1.000
1.170,1.425,12.045,14.400,4.705,5.160,-4.105,-14.948,-0.018,1.011,-0.132,-3.448,0.519,0.610,73.333,31357.000,1.000
7.692,6.963,15.038,19.068,9.147,6.848,1.743,-14.766,-0.021,1.011,-0.130,-3.479,0.580,0.702,73.333,31358.000,1.000
13.674,12.869,17.303,21.954,12.687,7.850,8.495,-15.312,-0.021,1.005,-0.128,-3.540,0.671,0.824,73.333,31359.000,1.000
16.785,16.894,18.731,22.403,15.068,7.820,13.745,-16.538,-0.021,1.006,-0.129,-3.571,0.763,0.885,73.333,31360.000,1.000
16.022,18.023,19.502,20.688,16.610,7.214,16.358,-17.426,-0.024,1.006,-0.131,-3.479,0.824,0.702,73.333,31361.000,1.000
12.301,17.243,20.028,17.923,18.188,7.405,17.758,-15.930,-0.025,1.004,-0.132,-3.540,0.885,0.580,73.333,31362.000,1.000
7.301,16.135,20.656,15.436,20.701,9.413,20.029,-10.079,-0.028,1.003,-0.132,-3.418,0.793,0.519,73.333,31363.000,1.000
1.963,15.076,21.224,13.952,24.268,12.621,23.125,0.377,-0.031,1.002,-0.132,-3.448,0.824,0.519,73.333,31364.000,1.000
-3.500,13.382,21.126,13.388,28.058,15.294,25.017,13.563,-0.032,1.003,-0.131,-3.357,0.824,0.458,73.333,31365.000,1.000
-8.409,11.045,20.021,13.377,31.005,16.427,24.543,26.692,-0.029,1.002,-0.131,-3.296,0.702,0.214,73.333,31366.000,1.000
-11.436,9.269,18.191,13.688,32.491,16.475,22.755,37.435,-0.031,1.003,-0.129,-3.235,0.610,0.092,73.333,31367.000,1.000
-12.053,8.774,15.982,13.971,32.278,16.044,20.981,44.299,-0.030,1.006,-0.130,-3.082,0.580,-0.061,73.333,31368.000,1.000
-11.428,8.438,13.312,13.632,30.291,14.679,18.769,46.567,-0.029,1.006,-0.132,-3.052,0.458,-0.092,73.333,31369.000,1.000
-11.238,6.513,9.933,12.303,26.757,11.558,14.744,44.532,-0.027,1.012,-0.133,-2.991,0.458,-0.061,73.333,31370.000,1.000
-11.948,2.782,5.762,10.102,22.186,6.914,8.983,39.515,-0.027,1.012,-0.127,-3.082,0.366,-0.122,73.333,31371.000,1.000
-12.722,-1.113,0.869,7.250,17.031,2.110,3.594,33.243,-0.026,1.011,-0.128,-3.113,0.366,-0.031,73.333,31372.000,1.000
-12.764,-3.302,-4.386,3.884,11.710,-1.541,0.748,27.199,-0.027,1.011,-0.130,-3.174,0.488,0.031,73.333,31373.000,1.000
-12.343,-3.255,-9.064,0.339,6.928,-3.595,0.646,22.409,-0.026,1.011,-0.129,-3.265,0.397,0.153,73.333,31374.000,1.000
-12.321,-1.657,-11.843,-2.753,3.533,-4.183,1.796,19.339,-0.026,1.011,-0.128,-3.326,0.366,0.305,73.333,31375.000,1.000
-12.871,0.953,-11.755,-4.828,1.896,-3.311,2.997,17.752,-0.028,1.011,-0.129,-3.387,0.366,0.549,73.333,31376.000,1.000
-13.206,4.610,-8.846,-5.897,1.509,-0.873,4.181,16.739,-0.029,1.011,-0.126,-3.265,0.305,0.763,73.333,31377.000,1.000
-12.998,8.627,-4.284,-6.769,1.148,2.498,4.999,14.920,-0.029,1.008,-0.125,-3.326,0.275,0.824,73.333,31378.000,1.000
-13.377,10.750,0.188,-8.546,-0.412,5.099,3.663,10.984,-0.029,1.011,-0.129,-3.326,0.092,0.885,73.333,31379.000,1.000
-15.685,8.761,3.268,-11.580,-3.497,5.316,-1.521,4.589,-0.030,1.011,-0.127,-3.418,0.153,1.038,73.333,31380.000,1.000
-19.525,2.876,4.758,-14.999,-7.281,3.104,-9.603,-3.207,-0.031,1.008,-0.126,-3.448,0.153,1.099,73.333,31381.000,1.000
-22.702,-4.117,5.317,-17.416,-10.475,0.016,-16.965,-10.629,-0.030,1.009,-0.130,-3.357,0.061,1.190,73.333,31382.000,1.000
-23.202,-9.312,5.744,-18.008,-12.190,-2.266,-20.371,-16.387,-0.030,1.011,-0.129,-3.265,0.061,1.190,73.333,31383.000,1.000
-20.950,-11.908,6.606,-16.929,-12.252,-3.199,-19.785,-20.231,-0.031,1.010,-0.131,-3.174,-0.092,1.221,73.333,31384.000,1.000
-17.396,-12.636,8.279,-14.852,-10.887,-3.007,-17.588,-22.437,-0.030,1.010,-0.130,-3.143,-0.214,1.282,73.333,31385.000,1.000
-13.691,-11.659,10.927,-12.301,-8.358,-1.500,-15.315,-23.135,-0.030,1.010,-0.129,-3.174,-0.275,1.282,73.333,31386.000,1.000
-9.972,-8.177,14.266,-9.530,-4.954,1.795,-12.301,-22.435,-0.030,1.010,-0.134,-3.082,-0.366,1.282,73.333,31387.000,1.000
-6.261,-2.090,17.570,-6.724,-1.053,6.440,-7.629,-20.695,-0.029,1.011,-0.132,-2.960,-0.397,1.373,73.333,31388.000,1.000
-3.148,4.968,20.022,-4.003,3.014,10.847,-2.080,-18.140,-0.029,1.009,-0.132,-2.930,-0.549,1.221,73.333,31389.000,1.000
-1.285,10.646,20.985,-1.485,6.873,13.423,2.495,-14.567,-0.028,1.008,-0.129,-2.869,-0.641,1.190,73.333,31390.000,1.000
-0.560,13.728,20.110,0.493,9.885,13.788,5.147,-9.622,-0.029,1.010,-0.130,-2.625,-0.763,1.190,73.333,31391.000,1.000
-0.226,14.623,17.366,1.367,11.260,12.779,6.453,-3.349,-0.029,1.012,-0.132,-2.594,-0.671,1.068,73.333,31392.000,1.000
0.082,14.061,13.052,0.741,10.579,11.304,7.113,3.490,-0.028,1.013,-0.130,-2.594,-0.732,0.977,73.333,31393.000,1.000
-0.163,11.988,7.881,-1.054,8.317,9.559,6.641,9.847,-0.026,1.012,-0.130,-2.533,-0.824,0.977,73.333,31394.000,1.000
-1.667,8.228,2.895,-2.919,5.714,7.413,4.090,15.123,-0.024,1.014,-0.129,-2.441,-0.793,0.824,73.333,31395.000,1.000
-4.254,3.787,-0.988,-3.744,3.896,5.095,-0.189,19.200,-0.021,1.012,-0.130,-2.594,-0.702,0.916,73.333,31396.000,1.000
-6.842,0.523,-3.537,-3.303,3.014,3.088,-4.308,21.878,-0.020,1.010,-0.132,-2.594,-0.610,0.946,73.333,31397.000,1.000
-8.774,-0.922,-5.460,-2.531,2.107,1.202,-6.927,22.510,-0.019,1.010,-0.134,-2.594,-0.671,1.099,73.333,31398.000,1.000
-10.718,-2.061,-7.759,-2.829,-0.107,-1.643,-8.963,20.402,-0.020,1.009,-0.134,-2.472,-0.580,1.007,73.333,31399.000,1.000
-13.578,-4.609,-10.466,-4.798,-4.001,-5.958,-12.166,15.868,-0.021,1.011,-0.132,-2.563,-0.549,1.099,73.333,31400.000,1.000
-16.877,-8.126,-12.280,-7.739,-8.575,-10.268,-16.265,10.727,-0.023,1.009,-0.134,-2.380,-0.488,0.946,73.333,31401.000,1.000
-19.053,-10.479,-11.768,-10.502,-12.387,-12.000,-18.663,7.128,-0.021,1.009,-0.130,-2.350,-0.366,0.977,73.333,31402.000,1.000
-19.231,-10.453,-8.733,-12.579,-14.789,-9.869,-17.278,5.823,-0.020,1.007,-0.132,-2.350,-0.305,1.068,73.333,31403.000,1.000
-18.135,-9.134,-4.332,-14.275,-16.197,-4.916,-13.047,5.797,-0.020,1.008,-0.135,-2.502,-0.153,1.190,73.333,31404.000,1.000
-17.215,-8.603,-0.203,-16.108,-17.432,0.653,-9.111,5.297,-0.018,1.008,-0.131,-2.472,-0.153,1.190,73.333,31405.000,1.000
-17.135,-9.688,2.471,-18.223,-18.988,5.221,-7.681,3.037,-0.019,1.006,-0.133,-2.502,-0.061,1.343,73.333,31406.000,1.000
-17.221,-11.374,3.418,-20.232,-20.737,8.368,-8.220,-1.250,-0.020,1.008,-0.131,-2.380,0.000,1.251,73.333,31407.000,1.000
-16.429,-12.336,3.160,-21.443,-22.049,10.116,-8.752,-7.055,-0.021,1.007,-0.133,-2.350,0.214,1.099,73.333,31408.000,1.000
-14.548,-12.467,2.621,-21.215,-22.085,10.201,-8.288,-13.548,-0.022,1.010,-0.133,-2.167,0.183,1.160,73.333,31409.000,1.000
-12.137,-12.500,2.760,-19.218,-20.181,8.562,-7.364,-19.765,-0.025,1.011,-0.134,-2.167,0.183,1.007,73.333,31410.000,1.000
-9.542,-12.557,4.181,-15.500,-16.186,6.203,-6.591,-24.631,-0.027,1.014,-0.131,-2.106,0.153,0.885,73.333,31411.000,1.000
-6.509,-11.787,6.817,-10.378,-10.516,4.778,-5.565,-27.247,-0.026,1.012,-0.129,-2.197,0.092,0.763,73.333,31412.000,1.000
-2.794,-9.507,9.990,-4.398,-3.997,5.070,-3.664,-27.426,-0.026,1.012,-0.129,-2.319,0.122,0.793,73.333,31413.000,1.000
1.061,-6.294,12.733,1.520,2.297,6.129,-1.550,-25.891,-0.028,1.012,-0.136,-2.441,0.092,0.732,73.333,31414.000,1.000
3.964,-3.473,14.152,6.254,7.349,6.211,-0.890,-23.629,-0.030,1.011,-0.133,-2.502,0.000,0.580,73.333,31415.000,1.000
5.519,-1.438,13.800,9.158,10.692,4.666,-2.084,-20.826,-0.028,1.011,-0.131,-2.563,0.000,0.580,73.333,31416.000,1.000
6.504,0.765,11.700,10.340,12.492,2.568,-3.248,-16.710,-0.026,1.009,-0.135,-2.625,-0.214,0.458,73.333,31417.000,1.000
7.649,3.729,7.977,10.202,13.080,1.317,-2.361,-10.610,-0.026,1.009,-0.134,-2.655,-0.275,0.397,73.333,31418.000,1.000
8.579,6.443,2.853,9.133,12.694,1.198,0.312,-2.866,-0.026,1.010,-0.132,-2.625,-0.244,0.397,73.333,31419.000,1.000
8.443,7.358,-3.056,7.564,11.550,1.497,2.767,5.271,-0.025,1.010,-0.130,-2.716,-0.336,0.305,73.333,31420.000,1.000
7.153,6.168,-8.884,5.886,9.799,1.489,3.723,12.293,-0.026,1.011,-0.135,-2.594,-0.397,0.244,73.333,31421.000,1.000
5.657,4.101,-13.828,4.409,7.555,0.983,3.820,17.106,-0.027,1.012,-0.134,-2.502,-0.397,0.275,73.333,31422.000,1.000
4.930,2.453,-17.283,3.379,5.012,-0.046,4.125,19.303,-0.026,1.015,-0.134,-2.472,-0.397,0.275,73.333,31423.000,1.000
4.803,1.107,-19.053,2.729,2.294,-2.005,4.033,18.891,-0.023,1.013,-0.133,-2.625,-0.427,0.305,73.333,31424.000,1.000
4.174,-1.093,-19.472,2.025,-0.649,-5.235,1.769,16.164,-0.023,1.012,-0.133,-2.655,-0.458,0.427,73.333,31425.000,1.000
2.266,-4.744,-19.275,0.764,-3.933,-9.215,-3.114,11.821,-0.022,1.011,-0.135,-2.716,-0.305,0.549,73.333,31426.000,1.000
-0.859,-9.415,-19.328,-1.515,-7.708,-12.897,-8.927,6.693,-0.022,1.012,-0.133,-2.563,-0.244,0.641,73.333,31427.000,1.000
-5.004,-14.653,-20.072,-5.179,-12.010,-15.623,-13.763,1.463,-0.023,1.010,-0.136,-2.655,-0.214,0.641,73.333,31428.000,1.000
-10.438,-20.699,-21.090,-10.178,-16.454,-17.221,-17.371,-3.170,-0.022,1.011,-0.133,-2.563,-0.244,0.641,73.333,31429.000,1.000
-17.399,-27.775,-21.563,-15.858,-20.321,-17.403,-20.650,-6.447,-0.022,1.011,-0.131,-2.563,-0.244,0.793,73.333,31430.000,1.000
-25.080,-34.818,-21.107,-21.229,-23.055,-15.456,-23.530,-7.880,-0.023,1.012,-0.131,-2.533,-0.153,0.763,73.333,31431.000,1.000
-31.630,-39.660,-19.951,-25.465,-24.604,-10.818,-24.295,-7.631,-0.024,1.011,-0.131,-2.502,-0.122,0.854,73.333,31432.000,1.000
-35.678,-41.034,-18.651,-28.324,-25.459,-4.232,-21.654,-6.755,-0.027,1.011,-0.130,-2.533,-0.061,0.885,73.333,31433.000,1.000
-37.555,-39.881,-17.693,-30.137,-26.348,1.941,-16.838,-6.875,-0.027,1.011,-0.129,-2.563,-0.061,0.793,73.333,31434.000,1.000
-38.491,-38.027,-17.053,-31.246,-27.638,5.195,-12.614,-9.092,-0.027,1.012,-0.128,-2.625,-0.031,0.732,73.333,31435.000,1.000
-38.914,-35.981,-16.253,-31.569,-29.013,4.782,-10.371,-13.165,-0.028,1.010,-0.129,-2.625,0.000,0.763,73.333,31436.000,1.000
-38.232,-32.827,-14.996,-30.890,-29.855,1.879,-9.107,-17.927,-0.027,1.010,-0.130,-2.655,-0.092,0.732,73.333,31437.000,1.000
-36.120,-28.018,-13.366,-29.219,-29.623,-1.875,-7.357,-22.175,-0.029,1.009,-0.127,-2.563,-0.122,0.732,73.333,31438.000,1.000
-33.303,-22.489,-11.350,-26.603,-27.749,-5.411,-5.157,-24.878,-0.028,1.010,-0.131,-2.533,-0.214,0.580,73.333,31439.000,1.000
-30.930,-17.861,-8.745,-22.958,-23.694,-8.017,-3.708,-25.070,-0.027,1.010,-0.131,-2.594,-0.214,0.549,73.333,31440.000,1.000
-29.449,-14.922,-5.691,-18.368,-17.526,-8.935,-3.625,-22.218,-0.027,1.010,-0.131,-2.472,-0.214,0.488,73.333,31441.000,1.000
-28.259,-13.096,-2.903,-13.322,-10.203,-7.739,-4.140,-16.694,-0.028,1.009,-0.129,-2.502,-0.275,0.519,73.333,31442.000,1.000
-26.515,-11.285,-1.079,-8.481,-3.093,-5.032,-4.212,-9.773,-0.027,1.009,-0.129,-2.533,-0.305,0.519,73.333,31443.000,1.000
-24.054,-8.958,-0.226,-4.216,2.805,-2.387,-3.943,-3.030,-0.026,1.009,-0.130,-2.411,-0.397,0.549,73.333,31444.000,1.000
-21.226,-6.168,0.088,-0.454,7.225,-1.141,-4.188,2.683,-0.026,1.006,-0.129,-2.380,-0.397,0.519,73.333,31445.000,1.000
-17.983,-2.724,-0.013,3.017,10.329,-1.094,-4.832,7.767,-0.026,1.005,-0.127,-2.289,-0.427,0.427,73.333,31446.000,1.000
-13.794,1.864,-0.842,6.069,12.160,-0.806,-4.397,13.107,-0.027,1.006,-0.127,-2.258,-0.366,0.488,73.333,31447.000,1.000
-8.685,7.226,-2.711,8.126,12.463,0.599,-1.848,18.800,-0.027,1.005,-0.127,-2.136,-0.427,0.488,73.333,31448.000,1.000
-3.856,11.581,-5.570,8.578,10.992,2.265,1.748,23.858,-0.027,1.005,-0.127,-1.984,-0.458,0.427,73.333,31449.000,1.000
-0.797,13.021,-8.961,7.268,7.864,2.473,4.089,26.989,-0.027,1.005,-0.132,-1.923,-0.458,0.488,73.333,31450.000,1.000
0.107,11.355,-12.203,4.597,3.583,0.528,4.164,27.502,-0.027,1.006,-0.130,-1.923,-0.549,0.519,73.333,31451.000,1.000
-0.233,8.280,-14.628,1.262,-1.144,-2.514,3.223,25.606,-0.029,1.009,-0.127,-1.923,-0.610,0.610,73.333,31452.000,1.000
-0.806,5.590,-15.601,-2.058,-5.562,-4.990,2.972,22.156,-0.030,1.011,-0.129,-1.862,-0.671,0.641,73.333,31453.000,1.000
-1.602,3.513,-14.477,-4.839,-8.939,-5.994,3.375,18.331,-0.029,1.011,-0.129,-1.953,-0.610,0.641,73.333,31454.000,1.000
-3.271,1.082,-11.033,-6.742,-10.728,-5.373,2.777,15.310,-0.029,1.011,-0.131,-2.136,-0.610,0.763,73.333,31455.000,1.000
-5.766,-2.065,-5.951,-7.624,-10.821,-2.966,0.093,13.757,-0.029,1.011,-0.130,-2.045,-0.580,0.702,73.333,31456.000,1.000
-7.806,-4.971,-0.558,-7.545,-9.662,1.335,-3.755,13.363,-0.028,1.011,-0.130,-2.106,-0.641,0.763,73.333,31457.000,1.000
-8.209,-6.832,3.729,-6.916,-8.235,6.485,-7.175,12.728,-0.028,1.011,-0.131,-2.228,-0.702,0.732,73.333,31458.000,1.000
-7.421,-8.434,5.872,-6.504,-7.749,9.956,-10.072,9.958,-0.027,1.012,-0.130,-2.380,-0.763,0.732,73.333,31459.000,1.000
-6.896,-11.117,5.752,-6.913,-8.882,9.556,-13.404,4.023,-0.027,1.011,-0.129,-2.319,-0.824,0.885,73.333,31460.000,1.000
-7.261,-14.622,4.190,-8.116,-11.350,5.559,-16.913,-4.360,-0.027,1.011,-0.131,-2.319,-0.977,0.793,73.333,31461.000,1.000
-7.739,-16.890,2.196,-9.615,-14.251,0.527,-18.716,-13.332,-0.028,1.011,-0.132,-2.289,-0.977,0.763,73.333,31462.000,1.000
-7.192,-16.156,0.594,-10.796,-16.567,-2.814,-17.446,-21.196,-0.028,1.010,-0.133,-2.502,-0.977,0.732,73.333,31463.000,1.000
-5.242,-12.722,0.176,-11.078,-17.427,-3.391,-14.032,-27.117,-0.028,1.008,-0.133,-2.533,-0.916,0.702,73.333,31464.000,1.000
-2.333,-8.446,1.370,-10.094,-16.436,-1.920,-10.794,-31.004,-0.026,1.007,-0.134,-2.441,-1.007,0.702,73.333,31465.000,1.000
1.122,-4.728,3.698,-7.854,-13.897,0.277,-8.870,-33.059,-0.026,1.008,-0.130,-2.350,-1.099,0.702,73.333,31466.000,1.000
5.236,-1.470,6.075,-4.662,-10.491,2.269,-7.192,-33.290,-0.024,1.009,-0.130,-2.319,-0.977,0.732,73.333,31467.000,1.000
9.892,1.767,7.443,-1.044,-6.867,3.339,-4.473,-31.501,-0.025,1.010,-0.135,-2.258,-1.007,0.702,73.333,31468.000,1.000
13.934,4.263,6.929,2.270,-3.536,2.535,-1.556,-27.811,-0.025,1.009,-0.134,-2.350,-0.946,0.610,73.333,31469.000,1.000
15.933,4.621,4.063,4.667,-0.812,-0.761,-0.690,-22.804,-0.025,1.011,-0.134,-2.319,-1.038,0.702,73.333,31470.000,1.000
15.782,2.608,-0.818,6.060,1.255,-5.815,-2.645,-16.975,-0.025,1.012,-0.133,-2.380,-1.007,0.641,73.333,31471.000,1.000
14.966,-0.263,-6.549,6.888,2.792,-10.657,-5.533,-10.370,-0.024,1.013,-0.131,-2.594,-0.977,0.610,73.333,31472.000,1.000
15.043,-2.202,-11.538,7.729,4.020,-13.482,-6.866,-2.948,-0.023,1.016,-0.131,-2.625,-0.916,0.763,73.333,31473.000,1.000
16.093,-2.853,-14.367,8.831,5.124,-13.953,-6.221,4.772,-0.023,1.015,-0.133,-2.625,-0.854,0.671,73.333,31474.000,1.000
16.959,-3.181,-14.691,9.844,5.907,-13.134,-5.301,11.533,-0.024,1.014,-0.131,-2.777,-0.793,0.671,73.333,31475.000,1.000
16.888,-3.896,-13.709,10.016,5.656,-12.278,-5.532,15.872,-0.025,1.014,-0.132,-2.869,-0.763,0.732,73.333,31476.000,1.000
16.432,-4.538,-13.304,8.763,3.682,-11.780,-6.278,16.987,-0.025,1.014,-0.132,-2.930,-0.732,0.641,73.333,31477.000,1.000
16.572,-4.262,-14.418,6.132,0.087,-11.319,-5.891,15.198,-0.026,1.011,-0.133,-3.052,-0.580,0.610,73.333,31478.000,1.000
17.407,-3.063,-16.387,2.745,-4.170,-10.683,-4.074,11.584,-0.027,1.011,-0.134,-3.113,-0.519,0.580,73.333,31479.000,1.000
18.249,-1.722,-17.782,-0.572,-7.954,-9.930,-2.188,7.331,-0.028,1.011,-0.132,-3.235,-0.549,0.610,73.333,31480.000,1.000
18.795,-0.681,-17.589,-3.117,-10.599,-8.798,-1.210,3.397,-0.027,1.012,-0.130,-3.113,-0.488,0.488,73.333,31481.000,1.000
19.594,0.438,-15.653,-4.464,-12.060,-6.712,-0.529,0.263,-0.027,1.010,-0.132,-3.113,-0.549,0.397,73.333,31482.000,1.000
21.281,2.016,-12.331,-4.375,-12.504,-3.617,0.855,-2.156,-0.028,1.009,-0.132,-3.204,-0.519,0.397,73.333,31483.000,1.000
23.801,3.614,-8.127,-2.688,-11.877,-0.401,2.774,-4.111,-0.028,1.006,-0.131,-3.174,-0.549,0.458,73.333,31484.000,1.000
26.544,4.402,-3.740,0.473,-10.074,1.768,4.052,-5.607,-0.029,1.006,-0.128,-3.143,-0.580,0.427,73.333,31485.000,1.000
29.013,4.340,-0.086,4.397,-7.446,2.492,4.032,-6.526,-0.031,1.007,-0.132,-2.960,-0.610,0.427,73.333,31486.000,1.000
31.057,4.379,2.052,7.895,-4.821,2.358,3.424,-6.984,-0.029,1.004,-0.130,-2.838,-0.549,0.427,73.333,31487.000,1.000
32.476,5.288,2.539,9.950,-2.873,2.045,3.274,-7.490,-0.029,1.006,-0.129,-2.899,-0.580,0.427,73.333,31488.000,1.000
32.846,6.787,2.128,10.442,-1.544,1.624,3.483,-8.669,-0.027,1.006,-0.130,-2.838,-0.519,0.519,73.333,31489.000,1.000
32.082,8.149,1.979,10.180,-0.217,0.938,3.117,-10.710,-0.027,1.007,-0.133,-2.869,-0.549,0.549,73.333,31490.000,1.000
31.053,9.322,2.762,10.218,1.580,0.393,2.169,-13.024,-0.026,1.007,-0.133,-2.777,-0.610,0.671,73.333,31491.000,1.000
31.124,10.958,4.255,11.103,3.738,0.829,2.129,-14.662,-0.026,1.006,-0.131,-2.716,-0.519,0.549,73.333,31492.000,1.000
32.738,13.201,5.687,12.550,5.661,2.381,4.201,-15.207,-0.024,1.008,-0.131,-2.625,-0.397,0.732,73.333,31493.000,1.000
34.877,15.060,6.334,13.833,6.807,3.982,7.646,-14.955,-0.025,1.010,-0.129,-2.686,-0.427,0.732,73.333,31494.000,1.000
36.367,15.606,6.052,14.671,7.351,4.507,10.827,-13.976,-0.024,1.011,-0.128,-2.625,-0.427,0.885,73.333,31495.000,1.000
37.359,15.527,5.544,15.654,8.273,4.131,13.609,-11.435,-0.023,1.009,-0.130,-2.563,-0.366,0.885,73.333,31496.000,1.000
38.876,16.605,5.854,17.501,10.453,4.008,17.465,-6.500,-0.025,1.009,-0.131,-2.625,-0.366,0.977,73.333,31497.000,1.000
40.948,19.348,7.189,19.864,13.510,4.476,22.700,0.024,-0.025,1.011,-0.128,-2.716,-0.275,1.038,73.333,31498.000,1.000
41.920,21.819,8.557,21.317,15.886,4.213,26.702,5.574,-0.025,1.013,-0.128,-2.716,-0.244,1.068,73.333,31499.000,1.000
40.028,21.424,8.816,20.716,16.276,1.768,26.059,7.714,-0.027,1.014,-0.128,-2.655,-0.214,1.190,73.333,31500.000,1.000
35.412,17.669,7.796,18.364,14.761,-2.387,20.233,6.106,-0.029,1.014,-0.130,-2.747,-0.183,1.343,73.333,31501.000,1.000
30.275,12.692,6.357,15.804,12.595,-5.945,12.459,2.696,-0.029,1.013,-0.132,-2.747,-0.153,1.495,73.333,31502.000,1.000
27.069,9.194,5.711,14.697,11.207,-6.881,6.786,0.146,-0.029,1.014,-0.133,-2.747,-0.214,1.617,73.333,31503.000,1.000
26.680,8.319,6.641,15.854,11.373,-5.134,4.663,-0.015,-0.028,1.012,-0.129,-2.686,-0.122,1.740,73.333,31504.000,1.000
28.153,9.388,8.767,18.712,12.734,-2.416,4.546,1.702,-0.029,1.012,-0.128,-2.747,-0.214,1.801,73.333,31505.000,1.000
29.766,11.096,10.459,21.501,13.906,-0.698,4.364,3.356,-0.031,1.010,-0.128,-2.777,-0.214,1.831,73.333,31506.000,1.000
30.362,12.792,10.126,22.449,13.606,-0.640,3.799,3.395,-0.032,1.009,-0.129,-2.838,-0.153,1.953,73.333,31507.000,1.000
29.742,14.589,7.703,21.052,11.723,-1.383,3.814,1.820,-0.033,1.006,-0.135,-2.899,-0.305,2.075,73.333,31508.000,1.000
28.047,16.421,4.557,18.094,9.108,-1.851,4.525,-0.494,-0.036,1.010,-0.134,-2.747,-0.366,2.167,73.333,31509.000,1.000
25.492,17.817,2.275,14.832,6.727,-1.744,4.883,-2.817,-0.035,1.006,-0.130,-2.502,-0.488,2.106,73.333,31510.000,1.000
22.793,18.702,1.626,12.246,5.114,-1.102,4.531,-4.662,-0.034,1.007,-0.129,-2.472,-0.641,2.075,73.333,31511.000,1.000
20.941,19.497,2.192,10.564,4.173,0.194,4.651,-5.663,-0.034,1.006,-0.132,-2.380,-0.793,1.953,73.333,31512.000,1.000
20.177,20.139,2.933,9.427,3.467,1.976,6.296,-5.745,-0.034,1.006,-0.129,-2.350,-1.007,1.923,73.333,31513.000,1.000
19.594,19.640,3.252,8.588,2.858,3.365,8.537,-5.231,-0.031,1.004,-0.131,-2.319,-1.068,1.862,73.333,31514.000,1.000
18.092,17.125,3.414,8.239,2.690,3.365,9.108,-4.727,-0.029,1.006,-0.134,-2.106,-1.129,1.617,73.333,31515.000,1.000
15.698,13.300,4.084,8.684,3.391,1.898,7.022,-4.749,-0.028,1.008,-0.133,-1.953,-1.190,1.617,73.333,31516.000,1.000
13.703,10.420,5.692,9.861,5.023,0.005,3.877,-5.306,-0.025,1.008,-0.133,-1.892,-1.190,1.495,73.333,31517.000,1.000
13.288,10.236,8.120,11.274,7.200,-1.214,2.056,-5.864,-0.024,1.008,-0.134,-1.831,-1.129,1.434,73.333,31518.000,1.000
14.269,12.248,10.837,12.431,9.410,-1.568,2.117,-5.800,-0.021,1.009,-0.133,-1.801,-1.007,1.434,73.333,31519.000,1.000
15.409,14.409,13.091,13.133,11.216,-1.492,2.618,-5.007,-0.020,1.010,-0.132,-1.770,-0.977,1.526,73.333,31520.000,1.000
15.780,15.321,14.041,13.295,12.220,-1.156,2.388,-3.958,-0.019,1.009,-0.135,-1.709,-0.885,1.404,73.333,31521.000,1.000
15.573,15.330,13.219,12.891,12.236,-0.220,2.251,-3.095,-0.018,1.008,-0.133,-1.740,-0.793,1.434,73.333,31522.000,1.000
15.489,15.426,10.924,12.102,11.549,1.468,3.920,-2.395,-0.017,1.010,-0.130,-1.801,-0.641,1.404,73.333,31523.000,1.000
15.581,15.590,7.881,11.210,10.687,3.244,7.521,-1.581,-0.016,1.009,-0.129,-1.831,-0.427,1.526,73.333,31524.000,1.000
15.199,14.963,4.677,10.339,10.003,4.191,11.184,-0.502,-0.015,1.010,-0.131,-1.892,-0.244,1.434,73.333,31525.000,1.000
13.991,13.358,1.702,9.386,9.535,4.182,13.191,0.814,-0.015,1.010,-0.130,-1.984,-0.153,1.404,73.333,31526.000,1.000
12.351,11.712,-0.649,8.131,9.196,3.993,13.640,2.467,-0.015,1.009,-0.129,-1.801,0.031,1.373,73.333,31527.000,1.000
10.672,10.763,-1.832,6.432,9.012,4.341,13.538,4.736,-0.016,1.010,-0.132,-2.014,0.214,1.343,73.333,31528.000,1.000
8.536,9.891,-1.264,4.345,9.104,5.021,12.891,7.606,-0.016,1.011,-0.134,-2.045,0.336,1.312,73.333,31529.000,1.000
5.205,7.857,1.189,2.190,9.523,5.249,10.706,10.567,-0.017,1.010,-0.132,-1.984,0.488,1.251,73.333,31530.000,1.000
0.876,4.624,4.924,0.509,10.189,4.809,6.919,13.034,-0.019,1.010,-0.133,-2.045,0.488,1.190,73.333,31531.000,1.000
-3.071,1.828,8.990,-0.235,10.917,4.415,3.278,14.652,-0.020,1.009,-0.135,-2.014,0.671,1.099,73.333,31532.000,1.000
-5.333,1.140,12.606,0.005,11.504,4.793,1.556,15.255,-0.020,1.010,-0.136,-2.014,0.702,1.068,73.333,31533.000,1.000
-6.081,2.304,15.157,0.689,11.662,5.583,1.259,14.642,-0.022,1.012,-0.135,-1.953,0.793,0.916,73.333,31534.000,1.000
-6.765,3.218,15.973,0.778,10.802,5.514,-0.052,12.530,-0.022,1.010,-0.135,-1.953,0.824,0.854,73.333,31535.000,1.000
-8.397,2.144,14.523,-0.691,8.216,3.736,-3.911,8.903,-0.023,1.009,-0.132,-2.075,0.824,0.824,73.333,31536.000,1.000
-10.573,-0.767,10.837,-4.021,3.584,0.453,-9.194,4.148,-0.025,1.010,-0.133,-2.197,0.793,0.885,73.333,31537.000,1.000
-12.435,-4.312,5.656,-8.805,-2.689,-3.666,-13.609,-1.224,-0.026,1.010,-0.131,-2.197,0.763,0.793,73.333,31538.000,1.000
-13.886,-7.642,0.393,-14.093,-9.371,-7.934,-16.076,-6.622,-0.027,1.009,-0.131,-2.167,0.702,0.793,73.333,31539.000,1.000
-15.504,-10.458,-3.379,-18.694,-14.881,-11.592,-17.042,-11.359,-0.027,1.010,-0.132,-2.228,0.732,0.702,73.333,31540.000,1.000
-17.506,-12.404,-4.975,-21.742,-18.283,-13.829,-17.008,-14.909,-0.028,1.010,-0.131,-2.228,0.610,0.671,73.333,31541.000,1.000
-19.104,-12.830,-4.855,-22.959,-19.630,-14.027,-15.571,-17.022,-0.028,1.010,-0.130,-2.258,0.549,0.641,73.333,31542.000,1.000
-19.197,-11.462,-3.681,-22.401,-19.339,-12.266,-12.282,-17.649,-0.027,1.009,-0.133,-2.289,0.458,0.702,73.333,31543.000,1.000
-17.669,-9.293,-1.791,-20.262,-17.673,-9.640,-8.007,-17.027,-0.028,1.007,-0.130,-2.197,0.336,0.732,73.333,31544.000,1.000
-15.609,-8.205,0.217,-17.029,-14.988,-7.802,-4.719,-15.856,-0.028,1.008,-0.131,-2.228,0.305,0.793,73.333,31545.000,1.000
-14.208,-9.268,1.227,-13.604,-12.068,-7.832,-3.686,-14.927,-0.029,1.011,-0.129,-2.106,0.122,0.732,73.333,31546.000,1.000
-13.824,-11.666,0.424,-10.929,-9.737,-9.355,-4.271,-14.283,-0.029,1.012,-0.129,-2.075,0.092,0.641,73.333,31547.000,1.000
-14.304,-13.704,-1.923,-9.445,-8.228,-10.981,-5.052,-13.203,-0.032,1.012,-0.128,-2.197,-0.031,0.763,73.333,31548.000,1.000
-15.695,-14.583,-4.662,-9.042,-7.275,-11.731,-5.806,-11.272,-0.031,1.013,-0.130,-2.167,-0.214,0.763,73.333,31549.000,1.000
-18.067,-14.734,-6.634,-9.428,-6.681,-11.648,-7.448,-9.006,-0.030,1.013,-0.129,-2.350,-0.275,0.732,73.333,31550.000,1.000
-20.717,-14.611,-7.411,-10.284,-6.509,-11.028,-10.029,-7.254,-0.029,1.013,-0.130,-2.197,-0.397,0.763,73.333,31551.000,1.000
-22.081,-13.744,-7.342,-11.145,-6.730,-9.631,-11.738,-6.215,-0.026,1.013,-0.133,-2.258,-0.549,0.916,73.333,31552.000,1.000
-20.835,-11.393,-6.950,-11.411,-6.902,-6.963,-10.508,-5.171,-0.028,1.012,-0.133,-2.289,-0.519,0.916,73.333,31553.000,1.000
-17.163,-7.759,-6.391,-10.614,-6.309,-3.153,-6.281,-3.226,-0.027,1.011,-0.134,-2.167,-0.580,1.068,73.333,31554.000,1.000
-12.659,-3.840,-5.497,-8.690,-4.490,0.878,-0.989,-0.195,-0.026,1.011,-0.135,-2.106,-0.641,1.068,73.333,31555.000,1.000
-8.825,-0.106,-4.113,-6.075,-1.672,4.324,3.671,3.426,-0.025,1.009,-0.135,-2.106,-0.580,1.038,73.333,31556.000,1.000
-6.052,3.825,-2.208,-3.458,1.372,7.135,7.611,7.040,-0.024,1.006,-0.135,-2.045,-0.610,1.160,73.333,31557.000,1.000
-4.156,7.912,0.230,-1.288,3.980,9.463,11.220,10.238,-0.022,1.006,-0.135,-1.923,-0.641,1.282,73.333,31558.000,1.000
-3.332,10.761,2.979,0.361,5.893,10.849,13.573,12.640,-0.022,1.005,-0.133,-1.923,-0.702,1.434,73.333,31559.000,1.000
-4.161,10.454,5.015,1.373,6.809,10.295,12.607,13.588,-0.020,1.005,-0.135,-1.892,-0.763,1.495,73.333,31560.000,1.000
-6.635,6.538,4.928,1.458,6.284,7.356,7.526,12.531,-0.021,1.006,-0.134,-1.801,-0.641,1.526,73.333,31561.000,1.000
-9.527,1.000,2.451,0.587,4.423,3.080,0.590,9.988,-0.023,1.007,-0.134,-1.648,-0.549,1.495,73.333,31562.000,1.000
-11.342,-3.427,-1.032,-0.829,2.132,-0.668,-4.593,7.468,-0.021,1.007,-0.135,-1.495,-0.580,1.465,73.333,31563.000,1.000
-11.705,-5.677,-3.679,-2.213,0.515,-2.736,-6.328,6.205,-0.020,1.006,-0.137,-1.465,-0.580,1.526,73.333,31564.000,1.000
-11.273,-6.299,-4.353,-3.014,0.287,-2.990,-5.433,6.506,-0.022,1.004,-0.134,-1.404,-0.580,1.404,73.333,31565.000,1.000
-10.630,-5.738,-2.946,-2.916,1.511,-1.552,-3.161,8.076,-0.021,1.004,-0.137,-1.373,-0.580,1.434,73.333,31566.000,1.000
-9.859,-3.869,-0.282,-2.167,3.469,1.417,0.132,10.279,-0.021,1.004,-0.140,-1.282,-0.488,1.373,73.333,31567.000,1.000
-9.029,-0.991,2.429,-1.527,5.008,5.277,4.223,12.231,-0.021,1.008,-0.138,-1.160,-0.427,1.221,73.333,31568.000,1.000
-8.638,1.677,4.355,-1.683,5.352,8.906,8.009,13.278,-0.022,1.008,-0.137,-1.099,-0.336,1.099,73.333,31569.000,1.000
-9.295,2.820,5.307,-2.754,4.583,11.417,10.069,13.519,-0.025,1.009,-0.138,-1.099,-0.366,0.977,73.333,31570.000,1.000
-10.864,2.389,5.571,-4.209,3.436,12.935,10.366,13.735,-0.024,1.011,-0.139,-1.068,-0.458,0.885,73.333,31571.000,1.000
-12.255,1.824,5.669,-5.150,2.789,14.478,10.687,14.718,-0.025,1.014,-0.140,-1.068,-0.397,0.732,73.333,31572.000,1.000
-12.677,2.369,5.905,-4.945,3.100,16.650,12.437,16.463,-0.022,1.015,-0.139,-1.190,-0.336,0.549,73.333,31573.000,1.000
-12.765,3.520,6.117,-3.632,4.240,18.672,14.480,18.106,-0.022,1.016,-0.139,-1.282,-0.214,0.610,73.333,31574.000,1.000
-13.766,3.813,6.155,-1.590,5.910,19.377,14.370,18.986,-0.021,1.019,-0.139,-1.312,-0.244,0.549,73.333,31575.000,1.000
-15.849,2.787,6.320,0.863,7.990,18.879,11.458,19.426,-0.021,1.020,-0.139,-1.434,-0.153,0.427,73.333,31576.000,1.000
-17.876,1.415,7.032,3.385,10.311,18.413,7.606,20.067,-0.017,1.021,-0.135,-1.709,-0.031,0.427,73.333,31577.000,1.000
-18.789,0.736,8.285,5.465,12.383,18.634,4.785,20.835,-0.018,1.018,-0.135,-1.892,0.153,0.427,73.333,31578.000,1.000
-18.674,0.690,9.590,6.711,13.682,18.941,2.957,21.066,-0.018,1.021,-0.135,-2.045,0.183,0.427,73.333,31579.000,1.000
-18.210,0.615,10.403,7.278,14.152,18.653,0.907,20.471,-0.015,1.019,-0.135,-2.197,0.305,0.488,73.333,31580.000,1.000
-17.445,0.608,10.589,7.726,14.132,18.125,-1.404,19.418,-0.016,1.017,-0.139,-2.350,0.336,0.580,73.333,31581.000,1.000
-15.676,1.729,10.426,8.381,13.790,18.129,-2.315,18.185,-0.017,1.016,-0.140,-2.441,0.549,0.671,73.333,31582.000,1.000
-12.530,4.747,10.374,9.115,13.032,18.559,-0.420,16.562,-0.017,1.014,-0.139,-2.686,0.732,0.732,73.333,31583.000,1.000
-8.556,9.270,11.072,9.937,12.077,18.450,3.683,14.465,-0.018,1.010,-0.137,-2.777,0.793,0.824,73.333,31584.000,1.000
-4.517,14.263,13.025,11.310,11.616,17.202,7.986,12.436,-0.021,1.008,-0.134,-2.838,0.946,0.946,73.333,31585.000,1.000
-0.577,18.870,15.771,13.513,12.042,15.323,11.040,11.106,-0.021,1.006,-0.136,-2.777,1.129,0.977,73.333,31586.000,1.000
3.391,22.369,17.626,15.889,12.693,13.718,12.773,10.157,-0.021,1.002,-0.135,-2.838,1.190,0.885,73.333,31587.000,1.000
6.930,23.747,16.887,17.114,12.300,12.433,13.455,8.289,-0.021,1.004,-0.136,-2.808,1.160,0.977,73.333,31588.000,1.000
8.995,22.051,13.451,16.415,10.345,10.474,12.702,4.666,-0.023,1.001,-0.134,-2.747,1.282,0.977,73.333,31589.000,1.000
9.046,17.557,9.176,14.429,7.786,7.062,10.108,0.149,-0.028,1.002,-0.134,-2.716,1.160,0.916,73.333,31590.000,1.000
7.961,12.399,6.576,12.824,6.353,2.944,6.678,-3.170,-0.028,1.003,-0.132,-2.655,1.099,0.854,73.333,31591.000,1.000
7.480,9.395,6.907,13.008,7.147,0.017,4.734,-3.676,-0.029,1.004,-0.133,-2.625,1.007,0.732,73.333,31592.000,1.000
8.483,9.711,9.346,15.013,9.765,-0.716,5.606,-1.717,-0.030,1.003,-0.131,-2.747,0.824,0.702,73.333,31593.000,1.000
10.117,11.900,11.951,17.543,12.660,-0.335,7.904,0.677,-0.030,1.005,-0.135,-2.716,0.793,0.671,73.333,31594.000,1.000
11.000,13.705,13.256,19.165,14.398,-0.579,9.095,1.757,-0.031,1.005,-0.138,-2.777,0.671,0.519,73.333,31595.000,1.000
10.957,14.477,12.931,19.347,14.576,-1.803,8.537,1.483,-0.034,1.008,-0.136,-2.716,0.641,0.397,73.333,31596.000,1.000
10.989,15.256,11.352,18.346,13.611,-2.935,8.057,0.979,-0.031,1.010,-0.134,-2.838,0.427,0.427,73.333,31597.000,1.000
11.696,16.794,9.023,16.551,12.076,-2.974,9.528,1.215,-0.028,1.011,-0.131,-2.899,0.305,0.427,73.333,31598.000,1.000
12.317,18.194,6.374,14.218,10.382,-1.942,12.538,2.256,-0.028,1.010,-0.130,-2.960,0.275,0.336,73.333,31599.000,1.000
11.414,17.751,3.639,11.476,8.666,-0.616,14.841,3.263,-0.028,1.012,-0.132,-2.930,0.214,0.305,73.333,31600.000,1.000
8.365,14.907,0.846,8.361,6.789,0.347,14.947,3.285,-0.029,1.014,-0.134,-2.960,0.214,0.244,73.333,31601.000,1.000
4.041,10.873,-1.866,5.018,4.672,0.981,13.715,2.284,-0.025,1.015,-0.133,-3.052,0.122,0.214,73.333,31602.000,1.000
-0.191,6.972,-4.174,1.730,2.529,1.531,12.873,1.122,-0.026,1.014,-0.132,-3.265,0.061,0.427,73.333,31603.000,1.000
-3.913,2.946,-5.998,-1.322,0.619,1.544,12.457,0.467,-0.026,1.012,-0.132,-3.265,0.092,0.488,73.333,31604.000,1.000
-7.607,-2.259,-7.606,-4.117,-1.004,0.232,10.754,0.140,-0.026,1.011,-0.130,-3.510,0.061,0.702,73.333,31605.000,1.000
-11.396,-8.479,-9.259,-6.667,-2.473,-2.237,6.829,-0.370,-0.025,1.010,-0.131,-3.571,0.153,0.854,73.333,31606.000,1.000
-14.609,-14.102,-11.093,-9.070,-4.024,-4.640,2.003,-1.216,-0.024,1.011,-0.130,-3.448,0.031,0.946,73.333,31607.000,1.000
-16.708,-17.837,-13.103,-11.531,-5.832,-6.040,-1.701,-2.158,-0.025,1.010,-0.130,-3.418,0.092,1.007,73.333,31608.000,1.000
-18.116,-19.997,-14.990,-14.141,-7.823,-6.728,-3.899,-2.951,-0.026,1.014,-0.130,-3.601,0.122,1.038,73.333,31609.000,1.000
-19.782,-21.798,-16.412,-16.753,-9.788,-7.654,-5.873,-3.650,-0.027,1.013,-0.132,-3.601,0.061,1.099,73.333,31610.000,1.000
-21.981,-23.643,-17.458,-19.054,-11.604,-9.113,-8.377,-4.416,-0.027,1.010,-0.131,-3.571,0.000,1.221,73.333,31611.000,1.000
-23.843,-24.630,-18.584,-20.721,-13.274,-10.380,-10.309,-5.146,-0.027,1.009,-0.133,-3.540,-0.031,1.251,73.333,31612.000,1.000
-24.330,-23.935,-20.177,-21.695,-14.941,-10.821,-10.253,-5.762,-0.028,1.008,-0.136,-3.448,-0.214,1.343,73.333,31613.000,1.000
-23.342,-22.131,-22.281,-22.201,-16.797,-10.835,-8.590,-6.629,-0.029,1.008,-0.135,-3.174,-0.153,1.312,73.333,31614.000,1.000
-21.335,-20.491,-24.464,-22.272,-18.702,-11.227,-6.908,-8.098,-0.027,1.006,-0.133,-3.204,-0.275,1.312,73.333,31615.000,1.000
-18.161,-19.158,-25.836,-21.474,-20.036,-11.928,-5.637,-9.809,-0.024,1.005,-0.136,-3.113,-0.183,1.282,73.333,31616.000,1.000
-13.211,-16.929,-25.575,-19.444,-20.204,-11.876,-3.607,-10.942,-0.025,1.005,-0.135,-2.960,-0.214,1.190,73.333,31617.000,1.000
-6.826,-13.174,-23.639,-16.544,-19.199,-10.292,-0.247,-11.111,-0.025,1.005,-0.138,-2.899,-0.244,1.251,73.333,31618.000,1.000
-0.899,-9.211,-20.745,-13.673,-17.509,-7.793,2.706,-10.712,-0.024,1.007,-0.134,-2.777,-0.305,1.160,73.333,31619.000,1.000
2.367,-7.210,-17.733,-11.573,-15.683,-5.949,2.381,-10.518,-0.023,1.010,-0.133,-2.747,-0.366,1.251,73.333,31620.000,1.000
2.342,-7.965,-15.159,-10.436,-14.100,-5.753,-2.234,-10.995,-0.022,1.010,-0.134,-2.716,-0.397,1.221,73.333,31621.000,1.000
0.505,-10.074,-13.132,-9.975,-12.903,-6.754,-8.799,-11.886,-0.021,1.010,-0.133,-2.625,-0.366,1.160,73.333,31622.000,1.000
-1.047,-11.482,-11.219,-9.711,-11.962,-7.808,-13.760,-12.446,-0.019,1.009,-0.135,-2.716,-0.183,1.068,73.333,31623.000,1.000
-1.447,-11.466,-8.756,-9.292,-11.030,-8.300,-15.741,-12.119,-0.017,1.009,-0.135,-2.594,-0.153,0.977,73.333,31624.000,1.000
-1.131,-10.646,-5.542,-8.616,-9.974,-8.221,-15.947,-10.812,-0.017,1.010,-0.133,-2.563,-0.092,1.129,73.333,31625.000,1.000
-0.503,-9.553,-2.205,-7.821,-8.966,-7.423,-15.569,-8.697,-0.015,1.009,-0.132,-2.472,-0.061,1.160,73.333,31626.000,1.000
0.660,-8.083,0.220,-7.271,-8.468,-5.540,-14.179,-6.224,-0.015,1.010,-0.133,-2.502,0.061,1.068,73.333,31627.000,1.000
2.528,-6.264,1.137,-7.251,-8.782,-2.690,-10.937,-4.197,-0.018,1.011,-0.134,-2.472,0.214,1.007,73.333,31628.000,1.000
4.713,-4.755,0.871,-7.439,-9.470,0.351,-6.324,-3.179,-0.017,1.012,-0.133,-2.472,0.275,1.129,73.333,31629.000,1.000
6.674,-4.241,0.296,-7.024,-9.595,2.720,-1.976,-2.961,-0.016,1.010,-0.137,-2.563,0.397,1.068,73.333,31630.000,1.000
8.370,-4.414,-0.080,-5.612,-8.752,3.943,0.974,-3.025,-0.014,1.010,-0.135,-2.533,0.488,1.068,73.333,31631.000,1.000
10.164,-4.018,-0.525,-3.738,-7.541,3.938,2.800,-3.293,-0.014,1.011,-0.135,-2.563,0.641,1.038,73.333,31632.000,1.000
11.947,-2.448,-1.541,-2.406,-6.950,2.590,3.999,-4.165,-0.012,1.010,-0.136,-2.472,0.793,0.977,73.333,31633.000,1.000
12.704,-0.995,-3.219,-2.305,-7.497,-0.436,3.730,-5.957,-0.014,1.010,-0.136,-2.472,0.854,1.038,73.333,31634.000,1.000
11.427,-1.727,-5.145,-3.391,-8.891,-4.984,0.544,-8.315,-0.018,1.010,-0.136,-2.472,0.946,0.977,73.333,31635.000,1.000
8.323,-5.167,-6.783,-5.084,-10.381,-9.721,-5.346,-10.254,-0.020,1.010,-0.134,-2.533,1.068,0.854,73.333,31636.000,1.000
4.803,-9.643,-7.960,-6.837,-11.423,-12.807,-11.524,-10.960,-0.020,1.010,-0.133,-2.563,1.282,0.763,73.333,31637.000,1.000
2.252,-12.920,-8.823,-8.370,-11.916,-13.346,-15.455,-10.446,-0.020,1.009,-0.133,-2.533,1.282,0.732,73.333,31638.000,1.000
0.953,-14.056,-9.215,-9.448,-11.854,-11.957,-16.645,-9.352,-0.021,1.010,-0.130,-2.411,1.282,0.610,73.333,31639.000,1.000
0.314,-13.568,-8.551,-9.753,-11.095,-9.946,-16.370,-8.230,-0.021,1.011,-0.132,-2.533,1.221,0.519,73.333,31640.000,1.000
-0.033,-12.173,-6.507,-9.127,-9.610,-8.047,-15.519,-7.133,-0.021,1.010,-0.136,-2.625,1.251,0.549,73.333,31641.000,1.000
0.218,-9.938,-3.550,-7.803,-7.677,-6.069,-13.416,-5.792,-0.021,1.009,-0.137,-2.563,1.251,0.427,73.333,31642.000,1.000
1.251,-6.831,-0.622,-6.298,-5.672,-3.634,-9.226,-4.031,-0.021,1.009,-0.136,-2.594,1.190,0.397,73.333,31643.000,1.000
2.382,-3.627,1.558,-5.058,-3.764,-0.995,-4.015,-2.026,-0.024,1.009,-0.136,-2.472,1.221,0.397,73.333,31644.000,1.000
2.636,-1.502,2.870,-4.234,-1.956,1.124,-0.320,-0.171,-0.024,1.008,-0.135,-2.563,1.190,0.336,73.333,31645.000,1.000
