Alpha_TP9,Alpha_AF7,Alpha_AF8,Alpha_TP10,Beta_TP9,Beta_AF7,Beta_AF8,Beta_TP10,RAW_TP9,RAW_AF7,RAW_AF8,RAW_TP10,Elements
0.7091843,0.6996393,0.6582334,1.0497966,0.525109,0.2422642,0.57593274,0.52261853,791.75824,782.0879,778.0586,789.34064,
0.7091843,0.6996393,0.6582334,1.0497966,0.525109,0.2422642,0.57593274,0.52261853,798.20514,788.93774,776.8498,801.02563,
0.7091843,0.6996393,0.6582334,1.0497966,0.525109,0.2422642,0.57593274,0.52261853,794.9817,782.49084,774.83514,803.8461,
0.7091843,0.6996393,0.6582334,1.0497966,0.525109,0.2422642,0.57593274,0.52261853,786.52014,778.46155,777.6557,799.41394,
0.7091843,0.6996393,0.6582334,1.0497966,0.525109,0.2422642,0.57593274,0.52261853,787.72894,780.4762,776.8498,792.5641,
0.7091843,0.6996393,0.6582334,1.0497966,0.525109,0.2422642,0.57593274,0.52261853,793.36993,782.8938,772.4176,776.4469,
0.7091843,0.6996393,0.6582334,1.0497966,0.525109,0.2422642,0.57593274,0.52261853,792.5641,782.49084,776.8498,779.67035,
0.7091843,0.6996393,0.6582334,1.0497966,0.525109,0.2422642,0.57593274,0.52261853,792.5641,778.46155,779.67035,786.9231,
0.7091843,0.6996393,0.6582334,1.0497966,0.525109,0.2422642,0.57593274,0.52261853,794.9817,780.87915,786.52014,787326,
0.7091843,0.6996393,0.6582334,1.0497966,0.525109,0.2422642,0.57593274,0.52261853,795.78754,787.72894,791.3553,793.36993,
0.7091843,0.6996393,0.6582334,1.0497966,0.525109,0.2422642,0.57593274,0.52261853,797.8022,790.14655,793.36993,800.2198,
0.7091843,0.6996393,0.6582334,1.0497966,0.525109,0.2422642,0.57593274,0.52261853,796.5934,788.1319,792.1612,792.96704,
0.7091843,0.6996393,0.6582334,1.0497966,0.525109,0.2422642,0.57593274,0.52261853,792.1612,782.49084,785.7143,790.9524,
0.7091843,0.6996393,0.6582334,1.0497966,0.525109,0.2422642,0.57593274,0.52261853,784.90845,780.07324,778.86444,792.1612,
0.7091843,0.6996393,0.6582334,1.0497966,0.525109,0.2422642,0.57593274,0.52261853,784.5055,780.4762,780.4762,790.9524,
0.6945392,0.6996393,0.5915253,1.0497966,0.5474442,0.24236993,0.58539796,0.54142153,784.5055,780.87915,784.10254,792.96704,
0.6945392,0.6996393,0.5915253,1.0497966,0.5474442,0.24236993,0.58539796,0.54142153,783.2967,778.86444,778.86444,791.75824,
0.6945392,0.6996393,0.5915253,1.0497966,0.5474442,0.24236993,0.58539796,0.54142153,794.17584,780.87915,778.86444,795.78754,
0.6945392,0.6996393,0.5915253,1.0497966,0.5474442,0.24236993,0.58539796,0.54142153,795.78754,778.86444,774.0293,795.78754,
0.6945392,0.6996393,0.5915253,1.0497966,0.5474442,0.24236993,0.58539796,0.54142153,789.7436,783.2967,778.46155,798.60803,
0.6945392,0.6996393,0.5915253,1.0497966,0.5474442,0.24236993,0.58539796,0.54142153,791.75824,788.5348,787.72894,796.5934,
0.6945392,0.6996393,0.5915253,1.0497966,0.5474442,0.24236993,0.58539796,0.54142153,791.75824,780.07324,784.10254,791.3553,
0.6945392,0.6996393,0.5915253,1.0497966,0.5474442,0.24236993,0.58539796,0.54142153,795.78754,776.8498,788.93774,801.8315,
0.6945392,0.6996393,0.5915253,1.0497966,0.5474442,0.24236993,0.58539796,0.54142153,794.9817,780.87915,794.17584,803.0403,
0.6945392,0.6996393,0.5915253,1.0497966,0.5474442,0.24236993,0.58539796,0.54142153,794.57874,782.8938,788.1319,790.9524,
0.6945392,0.6996393,0.5915253,1.0497966,0.5474442,0.24236993,0.58539796,0.54142153,799.81683,783.2967,779.67035,792.5641,
0.6945392,0.6996393,0.5915253,1.0497966,0.5474442,0.24236993,0.58539796,0.54142153,793.36993,785.7143,777.25275,796.99634,
0.6945392,0.6996393,0.5915253,1.0497966,0.5474442,0.24236993,0.58539796,0.54142153,790.54944,785.31134,767.5824,796.99634,
0.6945392,0.6996393,0.5915253,1.0497966,0.5474442,0.24236993,0.58539796,0.54142153,792.1612,780.87915,762.3443,799.41394,
0.6945392,0.6996393,0.5915253,1.0497966,0.5474442,0.24236993,0.58539796,0.54142153,793.7729,776.8498,776.4469,796.1905,
0.6945392,0.6996393,0.5915253,1.0497966,0.5474442,0.24236993,0.58539796,0.54142153,791.3553,777.6557,782.49084,789.34064,
0.6945392,0.6996393,0.5915253,1.0497966,0.5474442,0.24236993,0.58539796,0.54142153,785.7143,779.2674,787326,794.57874,
0.6945392,0.6996393,0.5915253,1.0497966,0.5474442,0.24236993,0.58539796,0.54142153,791.3553,784.90845,794.57874,804.65204,
0.6945392,0.6996393,0.5915253,1.0497966,0.5474442,0.24236993,0.58539796,0.54142153,799.81683,787.72894,784.90845,807.47253,
0.6945392,0.6996393,0.5915253,1.0497966,0.5474442,0.24236993,0.58539796,0.54142153,792.96704,783.69965,777.6557,801.02563,
0.6945392,0.6996393,0.5915253,1.0497966,0.5474442,0.24236993,0.58539796,0.54142153,784.90845,779.2674,776.4469,792.5641,
0.6945392,0.6996393,0.5915253,1.0497966,0.5474442,0.24236993,0.58539796,0.54142153,781685,775.64105,767.98535,791.75824,
0.6945392,0.6996393,0.5915253,1.0497966,0.5474442,0.24236993,0.58539796,0.54142153,781.28204,776.04395,769.19415,793.36993,
0.6945392,0.6996393,0.5915253,1.0497966,0.5474442,0.24236993,0.58539796,0.54142153,776.8498,776.4469,777.6557,790.54944,
0.6945392,0.6996393,0.5915253,1.0497966,0.5474442,0.24236993,0.58539796,0.54142153,772.01465,774.0293,774.83514,787326,
0.6945392,0.6996393,0.5915253,1.0497966,0.5474442,0.24236993,0.58539796,0.54142153,776.4469,772.01465,769.59705,786.9231,
0.6701069,0.6996393,0.5905843,1.0497966,0.56181467,0.24317288,0.5987894,0.5617605,781.28204,777.25275,772.01465,787.72894,
0.6701069,0.6996393,0.5905843,1.0497966,0.56181467,0.24317288,0.5987894,0.5617605,779.2674,778.86444,768.7912,788.93774,
0.6701069,0.6996393,0.5905843,1.0497966,0.56181467,0.24317288,0.5987894,0.5617605,774.43225,778.0586,769.19415,786.1172,
0.6701069,0.6996393,0.5905843,1.0497966,0.56181467,0.24317288,0.5987894,0.5617605,778.0586,783.2967,780.4762,787326,
0.6701069,0.6996393,0.5905843,1.0497966,0.56181467,0.24317288,0.5987894,0.5617605,783.2967,786.9231,788.93774,789.34064,
0.6701069,0.6996393,0.5905843,1.0497966,0.56181467,0.24317288,0.5987894,0.5617605,787.72894,787326,793.36993,795.38464,
0.6701069,0.6996393,0.5905843,1.0497966,0.56181467,0.24317288,0.5987894,0.5617605,790.14655,787326,796.1905,800.6227,
0.6701069,0.6996393,0.5905843,1.0497966,0.56181467,0.24317288,0.5987894,0.5617605,790.14655,784.5055,794.17584,801.8315,
0.6701069,0.6996393,0.5905843,1.0497966,0.56181467,0.24317288,0.5987894,0.5617605,787326,780.87915,792.96704,804.2491,
0.6701069,0.6996393,0.5905843,1.0497966,0.56181467,0.24317288,0.5987894,0.5617605,786.9231,784.5055,788.1319,801.02563,
0.6701069,0.6996393,0.5905843,1.0497966,0.56181467,0.24317288,0.5987894,0.5617605,795.38464,788.93774,780.07324,796.99634,
0.6701069,0.6996393,0.5905843,1.0497966,0.56181467,0.24317288,0.5987894,0.5617605,797.8022,789.34064,785.7143,796.1905,
0.6701069,0.6996393,0.5905843,1.0497966,0.56181467,0.24317288,0.5987894,0.5617605,794.17584,783.2967,788.1319,796.1905,
0.6701069,0.6996393,0.5905843,1.0497966,0.56181467,0.24317288,0.5987894,0.5617605,790.9524,781.28204,778.0586,791.75824,
0.6701069,0.6996393,0.5905843,1.0497966,0.56181467,0.24317288,0.5987894,0.5617605,787.72894,788.5348,782.0879,792.1612,
0.6701069,0.6996393,0.5905843,1.0497966,0.56181467,0.24317288,0.5987894,0.5617605,791.3553,790.9524,803.0403,803.8461,
0.6701069,0.6996393,0.5905843,1.0497966,0.56181467,0.24317288,0.5987894,0.5617605,790.9524,790.9524,800.6227,801.02563,
0.6701069,0.6996393,0.5905843,1.0497966,0.56181467,0.24317288,0.5987894,0.5617605,783.69965,783.69965,785.31134,794.9817,
0.6701069,0.6996393,0.5905843,1.0497966,0.56181467,0.24317288,0.5987894,0.5617605,779.67035,777.25275,782.0879,789.34064,
0.6701069,0.6996393,0.5905843,1.0497966,0.56181467,0.24317288,0.5987894,0.5617605,782.8938,786.1172,793.36993,788.1319,
0.6701069,0.6996393,0.5905843,1.0497966,0.56181467,0.24317288,0.5987894,0.5617605,788.1319,794.17584,800.2198,800.2198,
0.6701069,0.6996393,0.5905843,1.0497966,0.56181467,0.24317288,0.5987894,0.5617605,795.38464,799.41394,799.41394,803.8461,
0.6701069,0.6996393,0.5905843,1.0497966,0.56181467,0.24317288,0.5987894,0.5617605,793.7729,798.60803,795.38464,803.44324,
0.6701069,0.6996393,0.5905843,1.0497966,0.56181467,0.24317288,0.5987894,0.5617605,789.7436,794.9817,789.34064,801.4286,
0.6701069,0.6996393,0.5905843,1.0497966,0.56181467,0.24317288,0.5987894,0.5617605,791.75824,792.1612,786.52014,799.81683,
0.6701069,0.6996393,0.5905843,1.0497966,0.56181467,0.24317288,0.5987894,0.5617605,789.34064,786.1172,786.9231,793.7729,
0.60694087,0.6996393,0.5905843,1.0481449,0.5664248,0.24566026,0.61376923,0.57912564,784.10254,784.5055,784.90845,782.8938,
0.60694087,0.6996393,0.5905843,1.0481449,0.5664248,0.24566026,0.61376923,0.57912564,788.5348,788.5348,778.86444,784.5055,
0.60694087,0.6996393,0.5905843,1.0481449,0.5664248,0.24566026,0.61376923,0.57912564,783.2967,784.10254,774.43225,792.5641,
0.60694087,0.6996393,0.5905843,1.0481449,0.5664248,0.24566026,0.61376923,0.57912564,776.4469,780.4762,774.0293,788.93774,
0.60694087,0.6996393,0.5905843,1.0481449,0.5664248,0.24566026,0.61376923,0.57912564,782.8938,782.49084,770.80585,784.5055,
0.60694087,0.6996393,0.5905843,1.0481449,0.5664248,0.24566026,0.61376923,0.57912564,780.4762,780.4762,769.59705,784.5055,
0.60694087,0.6996393,0.5905843,1.0481449,0.5664248,0.24566026,0.61376923,0.57912564,780.07324,777.6557,774.0293,791.3553,
0.60694087,0.6996393,0.5905843,1.0481449,0.5664248,0.24566026,0.61376923,0.57912564,778.0586,776.04395,774.0293,787.72894,
0.60694087,0.6996393,0.5905843,1.0481449,0.5664248,0.24566026,0.61376923,0.57912564,779.2674,777.6557,773.6264,780.87915,
0.60694087,0.6996393,0.5905843,1.0481449,0.5664248,0.24566026,0.61376923,0.57912564,782.49084,778.86444,776.04395,784.5055,
0.60694087,0.6996393,0.5905843,1.0481449,0.5664248,0.24566026,0.61376923,0.57912564,783.69965,773.6264,769.59705,779.67035,
0.60694087,0.6996393,0.5905843,1.0481449,0.5664248,0.24566026,0.61376923,0.57912564,784.5055,772.01465,761.13556,777.25275,
0.60694087,0.6996393,0.5905843,1.0481449,0.5664248,0.24566026,0.61376923,0.57912564,786.9231,775.2381,763.1502,787.72894,
0.60694087,0.6996393,0.5905843,1.0481449,0.5664248,0.24566026,0.61376923,0.57912564,780.07324,770.0,767.1795,788.93774,
0.60694087,0.6996393,0.5905843,1.0481449,0.5664248,0.24566026,0.61376923,0.57912564,781.28204,776.8498,763.95605,784.90845,
0.60694087,0.6996393,0.5905843,1.0481449,0.5664248,0.24566026,0.61376923,0.57912564,792.1612,788.93774,764.35895,790.9524,
0.60694087,0.6996393,0.5905843,1.0481449,0.5664248,0.24566026,0.61376923,0.57912564,787326,785.7143,772.4176,793.36993,
0.60694087,0.6996393,0.5905843,1.0481449,0.5664248,0.24566026,0.61376923,0.57912564,783.2967,782.49084,778.0586,783.69965,
0.60694087,0.6996393,0.5905843,1.0481449,0.5664248,0.24566026,0.61376923,0.57912564,780.87915,782.49084,780.4762,778.0586,
0.60694087,0.6996393,0.5905843,1.0481449,0.5664248,0.24566026,0.61376923,0.57912564,780.87915,782.0879,782.49084,787326,
0.60694087,0.6996393,0.5905843,1.0481449,0.5664248,0.24566026,0.61376923,0.57912564,782.49084,780.4762,773.6264,791.75824,
0.60694087,0.6996393,0.5905843,1.0481449,0.5664248,0.24566026,0.61376923,0.57912564,780.07324,779.2674,772.01465,788.5348,
0.60694087,0.6996393,0.5905843,1.0481449,0.5664248,0.24566026,0.61376923,0.57912564,777.25275,774.0293,774.83514,790.14655,
0.60694087,0.6996393,0.5905843,1.0481449,0.5664248,0.24566026,0.61376923,0.57912564,776.04395,770.80585,770.0,782.0879,
0.60694087,0.6996393,0.5905843,1.0481449,0.5664248,0.24566026,0.61376923,0.57912564,781685,776.4469,776.8498,777.25275,
0.60694087,0.6996393,0.5905843,1.0481449,0.5664248,0.24566026,0.61376923,0.57912564,778.86444,778.46155,778.0586,782.8938,
0.5723622,0.6996393,0.5905843,1.0123433,0.5633173,0.24192518,0.6303257,0.5899164,776.8498,777.25275,770.40295,779.67035,
0.5723622,0.6996393,0.5905843,1.0123433,0.5633173,0.24192518,0.6303257,0.5899164,774.0293,776.4469,774.43225,780.4762,
0.5723622,0.6996393,0.5905843,1.0123433,0.5633173,0.24192518,0.6303257,0.5899164,773.22345,778.0586,777.6557,782.8938,
0.5723622,0.6996393,0.5905843,1.0123433,0.5633173,0.24192518,0.6303257,0.5899164,781685,777.6557,779.67035,781.28204,
0.5723622,0.6996393,0.5905843,1.0123433,0.5633173,0.24192518,0.6303257,0.5899164,784.5055,777.6557,782.0879,785.7143,
0.5723622,0.6996393,0.5905843,1.0123433,0.5633173,0.24192518,0.6303257,0.5899164,784.90845,780.4762,786.9231,788.1319,
0.5723622,0.6996393,0.5905843,1.0123433,0.5633173,0.24192518,0.6303257,0.5899164,787326,778.46155,792.96704,784.90845,
0.5723622,0.6996393,0.5905843,1.0123433,0.5633173,0.24192518,0.6303257,0.5899164,790.9524,777.6557,788.93774,789.7436,
0.5723622,0.6996393,0.5905843,1.0123433,0.5633173,0.24192518,0.6303257,0.5899164,788.1319,776.8498,785.7143,784.90845,
0.5723622,0.6996393,0.5905843,1.0123433,0.5633173,0.24192518,0.6303257,0.5899164,785.31134,772.01465,785.7143,776.4469,
0.5723622,0.6996393,0.5905843,1.0123433,0.5633173,0.24192518,0.6303257,0.5899164,787326,770.40295,781685,778.46155,
0.5723622,0.6996393,0.5905843,1.0123433,0.5633173,0.24192518,0.6303257,0.5899164,784.5055,770.40295,776.8498,783.2967,
0.5723622,0.6996393,0.5905843,1.0123433,0.5633173,0.24192518,0.6303257,0.5899164,791.75824,777.6557,782.8938,794.17584,
0.5723622,0.6996393,0.5905843,1.0123433,0.5633173,0.24192518,0.6303257,0.5899164,794.17584,785.7143,788.93774,796.1905,
0.5723622,0.6996393,0.5905843,1.0123433,0.5633173,0.24192518,0.6303257,0.5899164,783.69965,779.2674,780.87915,782.49084,
0.5723622,0.6996393,0.5905843,1.0123433,0.5633173,0.24192518,0.6303257,0.5899164,778.0586,772.8205,779.67035,778.46155,
0.5723622,0.6996393,0.5905843,1.0123433,0.5633173,0.24192518,0.6303257,0.5899164,780.4762,777.25275,784.5055,780.87915,
0.5723622,0.6996393,0.5905843,1.0123433,0.5633173,0.24192518,0.6303257,0.5899164,782.0879,780.07324,787326,780.87915,
0.5723622,0.6996393,0.5905843,1.0123433,0.5633173,0.24192518,0.6303257,0.5899164,784.10254,779.67035,792.96704,781.28204,
0.5723622,0.6996393,0.5905843,1.0123433,0.5633173,0.24192518,0.6303257,0.5899164,787326,783.2967,796.1905,782.49084,
0.5723622,0.6996393,0.5905843,1.0123433,0.5633173,0.24192518,0.6303257,0.5899164,786.1172,786.1172,793.36993,791.3553,
0.5723622,0.6996393,0.5905843,1.0123433,0.5633173,0.24192518,0.6303257,0.5899164,784.90845,788.93774,790.9524,801.4286,
0.5723622,0.6996393,0.5905843,1.0123433,0.5633173,0.24192518,0.6303257,0.5899164,785.31134,788.93774,792.5641,801.4286,
0.5723622,0.6996393,0.5905843,1.0123433,0.5633173,0.24192518,0.6303257,0.5899164,784.90845,786.52014,791.3553,794.57874,
0.5723622,0.6996393,0.5905843,1.0123433,0.5633173,0.24192518,0.6303257,0.5899164,784.10254,788.93774,787.72894,790.14655,
0.5723622,0.6996393,0.5905843,1.0123433,0.5633173,0.24192518,0.6303257,0.5899164,786.1172,788.5348,793.7729,794.57874,
0.566279,0.6996393,0.5905843,0.93528086,0.55410194,0.23173499,0.646408,0.5935555,786.52014,782.8938,799.81683,799011,
0.566279,0.6996393,0.5905843,0.93528086,0.55410194,0.23173499,0.646408,0.5935555,782.0879,779.2674,798.20514,793.7729,
0.566279,0.6996393,0.5905843,0.93528086,0.55410194,0.23173499,0.646408,0.5935555,780.87915,781.28204,799.81683,789.7436,
0.566279,0.6996393,0.5905843,0.93528086,0.55410194,0.23173499,0.646408,0.5935555,780.87915,780.07324,794.57874,792.1612,
0.566279,0.6996393,0.5905843,0.93528086,0.55410194,0.23173499,0.646408,0.5935555,784.5055,779.67035,786.52014,793.7729,
0.566279,0.6996393,0.5905843,0.93528086,0.55410194,0.23173499,0.646408,0.5935555,793.36993,782.0879,791.75824,796.1905,
0.566279,0.6996393,0.5905843,0.93528086,0.55410194,0.23173499,0.646408,0.5935555,789.7436,783.69965,797.8022,790.54944,
0.566279,0.6996393,0.5905843,0.93528086,0.55410194,0.23173499,0.646408,0.5935555,788.93774,784.5055,794.57874,782.8938,
0.566279,0.6996393,0.5905843,0.93528086,0.55410194,0.23173499,0.646408,0.5935555,793.36993,786.1172,793.7729,785.31134,
0.566279,0.6996393,0.5905843,0.93528086,0.55410194,0.23173499,0.646408,0.5935555,794.9817,789.7436,797.8022,791.3553,
0.566279,0.6996393,0.5905843,0.93528086,0.55410194,0.23173499,0.646408,0.5935555,801.8315,792.5641,796.1905,795.38464,
0.566279,0.6996393,0.5905843,0.93528086,0.55410194,0.23173499,0.646408,0.5935555,805.4579,787326,790.9524,794.17584,
0.566279,0.6996393,0.5905843,0.93528086,0.55410194,0.23173499,0.646408,0.5935555,796.5934,777.25275,785.31134,799011,
0.566279,0.6996393,0.5905843,0.93528086,0.55410194,0.23173499,0.646408,0.5935555,798.20514,770.80585,786.52014,804.65204,
0.566279,0.6996393,0.5905843,0.93528086,0.55410194,0.23173499,0.646408,0.5935555,803.0403,773.6264,783.2967,795.38464,
0.566279,0.6996393,0.5905843,0.93528086,0.55410194,0.23173499,0.646408,0.5935555,805.4579,780.07324,770.40295,786.9231,
0.566279,0.6996393,0.5905843,0.93528086,0.55410194,0.23173499,0.646408,0.5935555,805.05493,784.10254,763.5531,784.10254,
0.566279,0.6996393,0.5905843,0.93528086,0.55410194,0.23173499,0.646408,0.5935555,794.57874,785.7143,774.0293,776.4469,
0.566279,0.6996393,0.5905843,0.93528086,0.55410194,0.23173499,0.646408,0.5935555,793.7729,786.52014,789.34064,775.64105,
0.566279,0.6996393,0.5905843,0.93528086,0.55410194,0.23173499,0.646408,0.5935555,793.7729,787.72894,786.9231,776.04395,
0.566279,0.6996393,0.5905843,0.93528086,0.55410194,0.23173499,0.646408,0.5935555,797.8022,792.96704,782.49084,780.4762,
0.566279,0.6996393,0.5905843,0.93528086,0.55410194,0.23173499,0.646408,0.5935555,808.68134,793.36993,780.4762,792.1612,
0.566279,0.6996393,0.5905843,0.93528086,0.55410194,0.23173499,0.646408,0.5935555,811.50183,788.5348,774.83514,794.17584,
0.566279,0.6996393,0.5905843,0.93528086,0.55410194,0.23173499,0.646408,0.5935555,802.23444,786.52014,771.6117,782.8938,
0.566279,0.6996393,0.5905843,0.93528086,0.55410194,0.23173499,0.646408,0.5935555,798.60803,790.9524,764.7619,784.5055,
0.566279,0.6996393,0.5905843,0.93528086,0.55410194,0.23173499,0.646408,0.5935555,803.8461,794.57874,768.3883,788.5348,
0.5721092,0.6953524,0.5838283,0.8404564,0.53886133,0.22049572,0.6689561,0.59171814,807.0696,790.54944,777.25275,786.9231,
0.5721092,0.6953524,0.5838283,0.8404564,0.53886133,0.22049572,0.6689561,0.59171814,804.2491,789.34064,778.0586,784.10254,
0.5721092,0.6953524,0.5838283,0.8404564,0.53886133,0.22049572,0.6689561,0.59171814,801.8315,790.54944,768.7912,779.67035,
0.5721092,0.6953524,0.5838283,0.8404564,0.53886133,0.22049572,0.6689561,0.59171814,804.65204,785.31134,766.77655,785.31134,
0.5721092,0.6953524,0.5838283,0.8404564,0.53886133,0.22049572,0.6689561,0.59171814,809.4872,781685,776.8498,795.38464,
0.5721092,0.6953524,0.5838283,0.8404564,0.53886133,0.22049572,0.6689561,0.59171814,817.5458,787.72894,783.2967,803.0403,
0.5721092,0.6953524,0.5838283,0.8404564,0.53886133,0.22049572,0.6689561,0.59171814,821.1722,791.3553,778.86444,808.68134,
0.5721092,0.6953524,0.5838283,0.8404564,0.53886133,0.22049572,0.6689561,0.59171814,820.3663,788.5348,775.64105,802.23444,
0.5721092,0.6953524,0.5838283,0.8404564,0.53886133,0.22049572,0.6689561,0.59171814,815.12823,786.1172,782.0879,791.3553,
0.5721092,0.6953524,0.5838283,0.8404564,0.53886133,0.22049572,0.6689561,0.59171814,810293,783.2967,784.5055,786.52014,
0.5721092,0.6953524,0.5838283,0.8404564,0.53886133,0.22049572,0.6689561,0.59171814,809.4872,784.10254,780.07324,786.9231,
0.5721092,0.6953524,0.5838283,0.8404564,0.53886133,0.22049572,0.6689561,0.59171814,808.2784,785.7143,775.2381,793.36993,
0.5721092,0.6953524,0.5838283,0.8404564,0.53886133,0.22049572,0.6689561,0.59171814,810696,787326,778.0586,795.38464,
0.5721092,0.6953524,0.5838283,0.8404564,0.53886133,0.22049572,0.6689561,0.59171814,815.9341,790.9524,784.5055,791.75824,
0.5721092,0.6953524,0.5838283,0.8404564,0.53886133,0.22049572,0.6689561,0.59171814,812.3077,787.72894,784.10254,793.36993,
0.5721092,0.6953524,0.5838283,0.8404564,0.53886133,0.22049572,0.6689561,0.59171814,806.6667,780.87915,776.04395,796.99634,
0.5721092,0.6953524,0.5838283,0.8404564,0.53886133,0.22049572,0.6689561,0.59171814,803.8461,780.87915,778.0586,799.41394,
0.5721092,0.6953524,0.5838283,0.8404564,0.53886133,0.22049572,0.6689561,0.59171814,802.23444,782.8938,784.5055,805.05493,
0.5721092,0.6953524,0.5838283,0.8404564,0.53886133,0.22049572,0.6689561,0.59171814,802.6374,782.0879,771.2088,808.68134,
0.5721092,0.6953524,0.5838283,0.8404564,0.53886133,0.22049572,0.6689561,0.59171814,803.0403,781.28204,767.98535,805.05493,
0.5721092,0.6953524,0.5838283,0.8404564,0.53886133,0.22049572,0.6689561,0.59171814,805.05493,778.46155,782.49084,799.81683,
0.5721092,0.6953524,0.5838283,0.8404564,0.53886133,0.22049572,0.6689561,0.59171814,805.05493,776.8498,784.5055,799.41394,
0.5721092,0.6953524,0.5838283,0.8404564,0.53886133,0.22049572,0.6689561,0.59171814,798.60803,772.8205,780.4762,799.41394,
0.5721092,0.6953524,0.5838283,0.8404564,0.53886133,0.22049572,0.6689561,0.59171814,794.17584,770.80585,780.4762,795.38464,
0.5721092,0.6953524,0.5838283,0.8404564,0.53886133,0.22049572,0.6689561,0.59171814,792.5641,773.22345,783.2967,794.17584,
0.5721092,0.6953524,0.5838283,0.8404564,0.53886133,0.22049572,0.6689561,0.59171814,788.93774,775.64105,784.5055,793.36993,
0.5577218,0.6940095,0.52967745,0.7828104,0.51813054,0.2150398,0.67278576,0.5870043,787.72894,777.25275,782.0879,789.34064,
0.5577218,0.6940095,0.52967745,0.7828104,0.51813054,0.2150398,0.67278576,0.5870043,793.7729,783.69965,787326,794.57874,
0.5577218,0.6940095,0.52967745,0.7828104,0.51813054,0.2150398,0.67278576,0.5870043,801.02563,786.52014,791.3553,797.3993,
0.5577218,0.6940095,0.52967745,0.7828104,0.51813054,0.2150398,0.67278576,0.5870043,797.8022,784.5055,784.10254,795.78754,
0.5577218,0.6940095,0.52967745,0.7828104,0.51813054,0.2150398,0.67278576,0.5870043,790.54944,779.2674,773.22345,790.54944,
0.5577218,0.6940095,0.52967745,0.7828104,0.51813054,0.2150398,0.67278576,0.5870043,788.1319,773.6264,772.8205,790.14655,
0.5577218,0.6940095,0.52967745,0.7828104,0.51813054,0.2150398,0.67278576,0.5870043,782.49084,770.0,778.46155,792.5641,
0.5577218,0.6940095,0.52967745,0.7828104,0.51813054,0.2150398,0.67278576,0.5870043,777.6557,765.56775,775.64105,778.0586,
0.5577218,0.6940095,0.52967745,0.7828104,0.51813054,0.2150398,0.67278576,0.5870043,777.25275,765.16486,766.77655,774.83514,
0.5577218,0.6940095,0.52967745,0.7828104,0.51813054,0.2150398,0.67278576,0.5870043,782.8938,772.4176,773.22345,789.7436,
0.5577218,0.6940095,0.52967745,0.7828104,0.51813054,0.2150398,0.67278576,0.5870043,790.9524,774.83514,781685,799.41394,
0.5577218,0.6940095,0.52967745,0.7828104,0.51813054,0.2150398,0.67278576,0.5870043,789.7436,773.6264,784.10254,794.17584,
0.5577218,0.6940095,0.52967745,0.7828104,0.51813054,0.2150398,0.67278576,0.5870043,799011,776.8498,786.9231,797.3993,
0.5577218,0.6940095,0.52967745,0.7828104,0.51813054,0.2150398,0.67278576,0.5870043,802.6374,780.07324,790.14655,806.26373,
0.5577218,0.6940095,0.52967745,0.7828104,0.51813054,0.2150398,0.67278576,0.5870043,793.7729,776.4469,788.1319,798.60803,
0.5577218,0.6940095,0.52967745,0.7828104,0.51813054,0.2150398,0.67278576,0.5870043,800.2198,775.64105,780.87915,798.60803,
0.5577218,0.6940095,0.52967745,0.7828104,0.51813054,0.2150398,0.67278576,0.5870043,802.23444,780.87915,777.6557,801.02563,
0.5577218,0.6940095,0.52967745,0.7828104,0.51813054,0.2150398,0.67278576,0.5870043,803.0403,785.7143,777.6557,803.0403,
0.5577218,0.6940095,0.52967745,0.7828104,0.51813054,0.2150398,0.67278576,0.5870043,804.65204,785.7143,773.22345,798.60803,
0.5577218,0.6940095,0.52967745,0.7828104,0.51813054,0.2150398,0.67278576,0.5870043,796.99634,780.07324,772.8205,788.1319,
0.5577218,0.6940095,0.52967745,0.7828104,0.51813054,0.2150398,0.67278576,0.5870043,793.7729,776.4469,775.2381,787.72894,
0.5577218,0.6940095,0.52967745,0.7828104,0.51813054,0.2150398,0.67278576,0.5870043,795.38464,776.4469,773.22345,788.93774,
0.5577218,0.6940095,0.52967745,0.7828104,0.51813054,0.2150398,0.67278576,0.5870043,794.57874,778.0586,773.6264,791.3553,
0.5577218,0.6940095,0.52967745,0.7828104,0.51813054,0.2150398,0.67278576,0.5870043,788.1319,775.2381,769.19415,785.31134,
0.5577218,0.6940095,0.52967745,0.7828104,0.51813054,0.2150398,0.67278576,0.5870043,782.8938,769.59705,764.35895,781.28204,
0.5577218,0.6940095,0.52967745,0.7828104,0.51813054,0.2150398,0.67278576,0.5870043,786.1172,768.3883,764.35895,782.0879,
0.5452373,0.6868487,0.51023054,0.68142605,0.49420792,0.21805136,0.6631675,0.5822519,785.7143,771.2088,765.56775,783.69965,
0.5452373,0.6868487,0.51023054,0.68142605,0.49420792,0.21805136,0.6631675,0.5822519,785.7143,774.43225,773.6264,787.72894,
0.5452373,0.6868487,0.51023054,0.68142605,0.49420792,0.21805136,0.6631675,0.5822519,791.3553,772.01465,781685,789.7436,
0.5452373,0.6868487,0.51023054,0.68142605,0.49420792,0.21805136,0.6631675,0.5822519,787.72894,770.0,776.4469,783.2967,
0.5452373,0.6868487,0.51023054,0.68142605,0.49420792,0.21805136,0.6631675,0.5822519,791.3553,765.16486,765.56775,787326,
0.5452373,0.6868487,0.51023054,0.68142605,0.49420792,0.21805136,0.6631675,0.5822519,802.23444,758315,767.1795,803.44324,
0.5452373,0.6868487,0.51023054,0.68142605,0.49420792,0.21805136,0.6631675,0.5822519,790.14655,761.9414,773.22345,790.14655,
0.5452373,0.6868487,0.51023054,0.68142605,0.49420792,0.21805136,0.6631675,0.5822519,769.59705,766.3736,770.0,765.9707,
0.5452373,0.6868487,0.51023054,0.68142605,0.49420792,0.21805136,0.6631675,0.5822519,759.12085,766.3736,761.53845,754.68866,
0.5452373,0.6868487,0.51023054,0.68142605,0.49420792,0.21805136,0.6631675,0.5822519,753.8828,770.0,755.4945,748.24176,
0.5452373,0.6868487,0.51023054,0.68142605,0.49420792,0.21805136,0.6631675,0.5822519,754.2857,774.83514,753.8828,743.00366,
0.5452373,0.6868487,0.51023054,0.68142605,0.49420792,0.21805136,0.6631675,0.5822519,751.06226,775.2381,752674,730.10986,
0.5452373,0.6868487,0.51023054,0.68142605,0.49420792,0.21805136,0.6631675,0.5822519,745.0183,774.43225,750.65936,720.0366,
0.5452373,0.6868487,0.51023054,0.68142605,0.49420792,0.21805136,0.6631675,0.5822519,743.00366,775.64105,755.89746,724.0659,
0.5452373,0.6868487,0.51023054,0.68142605,0.49420792,0.21805136,0.6631675,0.5822519,743.8095,782.8938,755.09155,727.6923,
0.5452373,0.6868487,0.51023054,0.68142605,0.49420792,0.21805136,0.6631675,0.5822519,751.4652,792.1612,756.30035,746.2271,
0.5452373,0.6868487,0.51023054,0.68142605,0.49420792,0.21805136,0.6631675,0.5822519,757.9121,793.36993,774.43225,760.7326,
0.5452373,0.6868487,0.51023054,0.68142605,0.49420792,0.21805136,0.6631675,0.5822519,751.8681,788.1319,778.46155,750.2564,
0.5452373,0.6868487,0.51023054,0.68142605,0.49420792,0.21805136,0.6631675,0.5822519,752674,780.07324,782.49084,747.4359,
0.5452373,0.6868487,0.51023054,0.68142605,0.49420792,0.21805136,0.6631675,0.5822519,759.12085,773.6264,794.17584,755.89746,
0.5452373,0.6868487,0.51023054,0.68142605,0.49420792,0.21805136,0.6631675,0.5822519,766.3736,782.0879,783.69965,766.77655,
0.5452373,0.6868487,0.51023054,0.68142605,0.49420792,0.21805136,0.6631675,0.5822519,777.25275,786.52014,765.16486,778.46155,
0.5452373,0.6868487,0.51023054,0.68142605,0.49420792,0.21805136,0.6631675,0.5822519,782.8938,778.46155,767.98535,778.0586,
0.5452373,0.6868487,0.51023054,0.68142605,0.49420792,0.21805136,0.6631675,0.5822519,783.69965,775.2381,775.2381,771.6117,
0.5452373,0.6868487,0.51023054,0.68142605,0.49420792,0.21805136,0.6631675,0.5822519,783.69965,778.86444,781685,776.8498,
0.5452373,0.6868487,0.51023054,0.68142605,0.49420792,0.21805136,0.6631675,0.5822519,789.34064,786.1172,787.72894,790.54944,
0.5376531,0.6539225,0.4698412,0.57012737,0.48374504,0.22792909,0.6456907,0.5813351,793.7729,792.1612,782.8938,799.41394,
0.5376531,0.6539225,0.4698412,0.57012737,0.48374504,0.22792909,0.6456907,0.5813351,786.52014,790.54944,779.67035,788.1319,
0.5376531,0.6539225,0.4698412,0.57012737,0.48374504,0.22792909,0.6456907,0.5813351,780.07324,784.10254,777.25275,776.4469,
0.5376531,0.6539225,0.4698412,0.57012737,0.48374504,0.22792909,0.6456907,0.5813351,782.49084,782.49084,775.2381,781685,
0.5376531,0.6539225,0.4698412,0.57012737,0.48374504,0.22792909,0.6456907,0.5813351,786.9231,784.5055,781.28204,783.2967,
0.5376531,0.6539225,0.4698412,0.57012737,0.48374504,0.22792909,0.6456907,0.5813351,789.7436,789.34064,784.90845,782.8938,
0.5376531,0.6539225,0.4698412,0.57012737,0.48374504,0.22792909,0.6456907,0.5813351,796.5934,791.3553,786.52014,787326,
0.5376531,0.6539225,0.4698412,0.57012737,0.48374504,0.22792909,0.6456907,0.5813351,798.60803,791.75824,788.93774,784.90845,
0.5376531,0.6539225,0.4698412,0.57012737,0.48374504,0.22792909,0.6456907,0.5813351,797.3993,793.7729,789.34064,790.9524,
0.5376531,0.6539225,0.4698412,0.57012737,0.48374504,0.22792909,0.6456907,0.5813351,800.6227,786.1172,789.34064,795.78754,
0.5376531,0.6539225,0.4698412,0.57012737,0.48374504,0.22792909,0.6456907,0.5813351,792.96704,776.8498,784.10254,793.36993,
0.5376531,0.6539225,0.4698412,0.57012737,0.48374504,0.22792909,0.6456907,0.5813351,792.1612,778.0586,780.87915,785.7143,
0.5376531,0.6539225,0.4698412,0.57012737,0.48374504,0.22792909,0.6456907,0.5813351,798.60803,780.07324,779.2674,778.46155,
0.5376531,0.6539225,0.4698412,0.57012737,0.48374504,0.22792909,0.6456907,0.5813351,795.78754,782.49084,776.4469,782.8938,
0.5376531,0.6539225,0.4698412,0.57012737,0.48374504,0.22792909,0.6456907,0.5813351,803.44324,790.14655,782.49084,796.99634,
0.5376531,0.6539225,0.4698412,0.57012737,0.48374504,0.22792909,0.6456907,0.5813351,814.7253,795.38464,784.90845,809.4872,
0.5376531,0.6539225,0.4698412,0.57012737,0.48374504,0.22792909,0.6456907,0.5813351,804.2491,792.96704,770.80585,794.57874,
0.5376531,0.6539225,0.4698412,0.57012737,0.48374504,0.22792909,0.6456907,0.5813351,795.38464,785.7143,767.5824,783.2967,
0.5376531,0.6539225,0.4698412,0.57012737,0.48374504,0.22792909,0.6456907,0.5813351,792.1612,782.49084,782.49084,790.14655,
0.5376531,0.6539225,0.4698412,0.57012737,0.48374504,0.22792909,0.6456907,0.5813351,792.5641,784.5055,790.54944,788.1319,
0.5376531,0.6539225,0.4698412,0.57012737,0.48374504,0.22792909,0.6456907,0.5813351,797.3993,789.34064,788.5348,786.52014,
0.5376531,0.6539225,0.4698412,0.57012737,0.48374504,0.22792909,0.6456907,0.5813351,794.9817,788.93774,783.69965,784.10254,
0.5376531,0.6539225,0.4698412,0.57012737,0.48374504,0.22792909,0.6456907,0.5813351,799.81683,786.1172,783.69965,784.90845,
0.5376531,0.6539225,0.4698412,0.57012737,0.48374504,0.22792909,0.6456907,0.5813351,799011,786.1172,789.34064,786.9231,
0.5376531,0.6539225,0.4698412,0.57012737,0.48374504,0.22792909,0.6456907,0.5813351,792.1612,788.5348,792.5641,787326,
0.5376531,0.6539225,0.4698412,0.57012737,0.48374504,0.22792909,0.6456907,0.5813351,796.5934,791.75824,789.34064,789.7436,
0.5324704,0.6328154,0.39060628,0.5670606,0.47627667,0.24152201,0.6270218,0.58884907,795.78754,788.93774,789.34064,784.10254,
0.5324704,0.6328154,0.39060628,0.5670606,0.47627667,0.24152201,0.6270218,0.58884907,794.9817,782.0879,786.1172,776.8498,
0.5324704,0.6328154,0.39060628,0.5670606,0.47627667,0.24152201,0.6270218,0.58884907,796.5934,778.0586,784.10254,776.4469,
0.5324704,0.6328154,0.39060628,0.5670606,0.47627667,0.24152201,0.6270218,0.58884907,797.8022,781.28204,792.1612,785.31134,
0.5324704,0.6328154,0.39060628,0.5670606,0.47627667,0.24152201,0.6270218,0.58884907,798.20514,785.7143,794.9817,793.36993,
0.5324704,0.6328154,0.39060628,0.5670606,0.47627667,0.24152201,0.6270218,0.58884907,795.78754,786.52014,788.1319,794.17584,
0.5324704,0.6328154,0.39060628,0.5670606,0.47627667,0.24152201,0.6270218,0.58884907,799.41394,786.9231,784.10254,794.57874,
0.5324704,0.6328154,0.39060628,0.5670606,0.47627667,0.24152201,0.6270218,0.58884907,803.8461,788.1319,783.69965,805.4579,
0.5324704,0.6328154,0.39060628,0.5670606,0.47627667,0.24152201,0.6270218,0.58884907,808.68134,787326,784.90845,809.89014,
0.5324704,0.6328154,0.39060628,0.5670606,0.47627667,0.24152201,0.6270218,0.58884907,811.50183,785.31134,790.9524,799011,
0.5324704,0.6328154,0.39060628,0.5670606,0.47627667,0.24152201,0.6270218,0.58884907,809.0842,787326,796.5934,794.17584,
0.5324704,0.6328154,0.39060628,0.5670606,0.47627667,0.24152201,0.6270218,0.58884907,801.02563,786.52014,789.7436,788.93774,
0.5324704,0.6328154,0.39060628,0.5670606,0.47627667,0.24152201,0.6270218,0.58884907,801.02563,786.9231,783.69965,784.10254,
0.5324704,0.6328154,0.39060628,0.5670606,0.47627667,0.24152201,0.6270218,0.58884907,809.4872,792.96704,789.34064,790.14655,
0.5324704,0.6328154,0.39060628,0.5670606,0.47627667,0.24152201,0.6270218,0.58884907,806.6667,791.3553,792.96704,790.9524,
0.5324704,0.6328154,0.39060628,0.5670606,0.47627667,0.24152201,0.6270218,0.58884907,798.60803,787.72894,792.1612,787.72894,
0.5324704,0.6328154,0.39060628,0.5670606,0.47627667,0.24152201,0.6270218,0.58884907,799011,786.1172,790.14655,793.7729,
0.5324704,0.6328154,0.39060628,0.5670606,0.47627667,0.24152201,0.6270218,0.58884907,793.7729,782.8938,789.7436,790.9524,
0.5324704,0.6328154,0.39060628,0.5670606,0.47627667,0.24152201,0.6270218,0.58884907,789.7436,783.69965,788.5348,791.3553,
0.5324704,0.6328154,0.39060628,0.5670606,0.47627667,0.24152201,0.6270218,0.58884907,792.5641,784.90845,789.34064,802.23444,
0.5324704,0.6328154,0.39060628,0.5670606,0.47627667,0.24152201,0.6270218,0.58884907,795.78754,785.7143,786.52014,803.44324,
0.5324704,0.6328154,0.39060628,0.5670606,0.47627667,0.24152201,0.6270218,0.58884907,794.57874,785.31134,770.40295,794.9817,
0.5324704,0.6328154,0.39060628,0.5670606,0.47627667,0.24152201,0.6270218,0.58884907,792.5641,784.5055,765.9707,794.9817,
0.5324704,0.6328154,0.39060628,0.5670606,0.47627667,0.24152201,0.6270218,0.58884907,796.5934,787326,781685,799.81683,
0.5324704,0.6328154,0.39060628,0.5670606,0.47627667,0.24152201,0.6270218,0.58884907,795.38464,789.34064,787326,801.02563,
0.5324704,0.6328154,0.39060628,0.5670606,0.47627667,0.24152201,0.6270218,0.58884907,793.36993,791.3553,792.1612,797.8022,
,,,,,,,,,,,,/muse/elements/blink
0.50419635,0.58476734,0.19159277,0.6526535,0.47329125,0.25460827,0.6130598,0.6108817,790.14655,791.3553,797.3993,782.8938,
0.50419635,0.58476734,0.19159277,0.6526535,0.47329125,0.25460827,0.6130598,0.6108817,787326,782.49084,792.1612,779.67035,
0.50419635,0.58476734,0.19159277,0.6526535,0.47329125,0.25460827,0.6130598,0.6108817,790.14655,774.0293,789.7436,788.1319,
0.50419635,0.58476734,0.19159277,0.6526535,0.47329125,0.25460827,0.6130598,0.6108817,795.78754,778.46155,792.5641,797.3993,
0.50419635,0.58476734,0.19159277,0.6526535,0.47329125,0.25460827,0.6130598,0.6108817,799011,782.8938,796.1905,809.0842,
0.50419635,0.58476734,0.19159277,0.6526535,0.47329125,0.25460827,0.6130598,0.6108817,798.20514,780.87915,789.7436,803.8461,
0.50419635,0.58476734,0.19159277,0.6526535,0.47329125,0.25460827,0.6130598,0.6108817,799011,783.2967,788.1319,793.7729,
0.50419635,0.58476734,0.19159277,0.6526535,0.47329125,0.25460827,0.6130598,0.6108817,797.8022,788.1319,789.7436,797.8022,
0.50419635,0.58476734,0.19159277,0.6526535,0.47329125,0.25460827,0.6130598,0.6108817,798.20514,785.7143,784.5055,797.8022,
0.50419635,0.58476734,0.19159277,0.6526535,0.47329125,0.25460827,0.6130598,0.6108817,804.2491,781685,784.5055,796.5934,
0.50419635,0.58476734,0.19159277,0.6526535,0.47329125,0.25460827,0.6130598,0.6108817,802.6374,784.10254,789.34064,797.8022,
0.50419635,0.58476734,0.19159277,0.6526535,0.47329125,0.25460827,0.6130598,0.6108817,801.4286,788.93774,794.9817,798.20514,
0.50419635,0.58476734,0.19159277,0.6526535,0.47329125,0.25460827,0.6130598,0.6108817,802.23444,787.72894,791.75824,795.78754,
0.50419635,0.58476734,0.19159277,0.6526535,0.47329125,0.25460827,0.6130598,0.6108817,798.20514,786.9231,786.1172,790.9524,
0.50419635,0.58476734,0.19159277,0.6526535,0.47329125,0.25460827,0.6130598,0.6108817,792.5641,784.10254,781.28204,788.5348,
0.50419635,0.58476734,0.19159277,0.6526535,0.47329125,0.25460827,0.6130598,0.6108817,794.17584,779.67035,776.4469,788.1319,
0.50419635,0.58476734,0.19159277,0.6526535,0.47329125,0.25460827,0.6130598,0.6108817,797.3993,780.87915,777.6557,781685,
0.50419635,0.58476734,0.19159277,0.6526535,0.47329125,0.25460827,0.6130598,0.6108817,800.6227,783.2967,782.0879,783.69965,
0.50419635,0.58476734,0.19159277,0.6526535,0.47329125,0.25460827,0.6130598,0.6108817,802.23444,783.2967,783.69965,789.7436,
0.50419635,0.58476734,0.19159277,0.6526535,0.47329125,0.25460827,0.6130598,0.6108817,807.47253,787326,788.93774,799011,
0.50419635,0.58476734,0.19159277,0.6526535,0.47329125,0.25460827,0.6130598,0.6108817,799.41394,785.31134,785.31134,799011,
0.50419635,0.58476734,0.19159277,0.6526535,0.47329125,0.25460827,0.6130598,0.6108817,788.5348,780.07324,776.04395,791.3553,
0.50419635,0.58476734,0.19159277,0.6526535,0.47329125,0.25460827,0.6130598,0.6108817,785.7143,778.46155,767.5824,793.7729,
0.50419635,0.58476734,0.19159277,0.6526535,0.47329125,0.25460827,0.6130598,0.6108817,782.8938,776.4469,758315,790.9524,
0.50419635,0.58476734,0.19159277,0.6526535,0.47329125,0.25460827,0.6130598,0.6108817,779.67035,769.59705,753.47986,783.69965,
0.50419635,0.58476734,0.19159277,0.6526535,0.47329125,0.25460827,0.6130598,0.6108817,772.8205,768.7912,760.7326,782.8938,
0.45111704,0.44102412,0.21044357,0.85617584,0.47407502,0.2637601,0.6148352,0.64842474,776.8498,772.4176,765.16486,788.1319,
0.45111704,0.44102412,0.21044357,0.85617584,0.47407502,0.2637601,0.6148352,0.64842474,781685,771.6117,773.22345,796.5934,
0.45111704,0.44102412,0.21044357,0.85617584,0.47407502,0.2637601,0.6148352,0.64842474,776.8498,770.0,784.5055,789.34064,
0.45111704,0.44102412,0.21044357,0.85617584,0.47407502,0.2637601,0.6148352,0.64842474,774.43225,768.3883,779.67035,779.67035,
0.45111704,0.44102412,0.21044357,0.85617584,0.47407502,0.2637601,0.6148352,0.64842474,776.04395,770.80585,777.25275,780.07324,
0.45111704,0.44102412,0.21044357,0.85617584,0.47407502,0.2637601,0.6148352,0.64842474,777.6557,769.19415,782.49084,774.83514,
0.45111704,0.44102412,0.21044357,0.85617584,0.47407502,0.2637601,0.6148352,0.64842474,779.67035,770.0,778.0586,780.87915,
0.45111704,0.44102412,0.21044357,0.85617584,0.47407502,0.2637601,0.6148352,0.64842474,782.8938,776.4469,768.7912,790.54944,
0.45111704,0.44102412,0.21044357,0.85617584,0.47407502,0.2637601,0.6148352,0.64842474,785.7143,778.46155,765.16486,794.9817,
0.45111704,0.44102412,0.21044357,0.85617584,0.47407502,0.2637601,0.6148352,0.64842474,788.93774,776.4469,767.98535,798.60803,
0.45111704,0.44102412,0.21044357,0.85617584,0.47407502,0.2637601,0.6148352,0.64842474,790.54944,778.86444,776.04395,787.72894,
0.45111704,0.44102412,0.21044357,0.85617584,0.47407502,0.2637601,0.6148352,0.64842474,790.54944,783.2967,782.8938,786.52014,
0.45111704,0.44102412,0.21044357,0.85617584,0.47407502,0.2637601,0.6148352,0.64842474,787.72894,780.4762,781.28204,790.9524,
0.45111704,0.44102412,0.21044357,0.85617584,0.47407502,0.2637601,0.6148352,0.64842474,789.7436,779.67035,778.0586,795.38464,
0.45111704,0.44102412,0.21044357,0.85617584,0.47407502,0.2637601,0.6148352,0.64842474,792.96704,779.67035,778.86444,790.14655,
0.45111704,0.44102412,0.21044357,0.85617584,0.47407502,0.2637601,0.6148352,0.64842474,791.75824,778.46155,779.2674,788.93774,
0.45111704,0.44102412,0.21044357,0.85617584,0.47407502,0.2637601,0.6148352,0.64842474,786.52014,784.10254,778.86444,798.20514,
0.45111704,0.44102412,0.21044357,0.85617584,0.47407502,0.2637601,0.6148352,0.64842474,786.52014,790.14655,787.72894,803.0403,
0.45111704,0.44102412,0.21044357,0.85617584,0.47407502,0.2637601,0.6148352,0.64842474,788.5348,789.7436,799.41394,803.44324,
0.45111704,0.44102412,0.21044357,0.85617584,0.47407502,0.2637601,0.6148352,0.64842474,774.0293,786.1172,791.3553,792.1612,
0.45111704,0.44102412,0.21044357,0.85617584,0.47407502,0.2637601,0.6148352,0.64842474,759.92676,781685,774.0293,786.1172,
0.45111704,0.44102412,0.21044357,0.85617584,0.47407502,0.2637601,0.6148352,0.64842474,758315,782.0879,772.8205,789.34064,
0.45111704,0.44102412,0.21044357,0.85617584,0.47407502,0.2637601,0.6148352,0.64842474,758.71796,788.5348,778.86444,792.1612,
0.45111704,0.44102412,0.21044357,0.85617584,0.47407502,0.2637601,0.6148352,0.64842474,770.40295,792.96704,783.2967,796.1905,
0.45111704,0.44102412,0.21044357,0.85617584,0.47407502,0.2637601,0.6148352,0.64842474,781685,798.20514,785.7143,801.8315,
0.45111704,0.44102412,0.21044357,0.85617584,0.47407502,0.2637601,0.6148352,0.64842474,782.8938,794.17584,792.96704,794.9817,
0.87086505,0.3188453,0.25437084,0.98417515,0.51107794,0.26805487,0.6220271,0.69183534,782.49084,781685,793.36993,780.87915,
0.87086505,0.3188453,0.25437084,0.98417515,0.51107794,0.26805487,0.6220271,0.69183534,785.7143,780.4762,785.7143,780.07324,
0.87086505,0.3188453,0.25437084,0.98417515,0.51107794,0.26805487,0.6220271,0.69183534,788.5348,784.90845,784.90845,790.9524,
0.87086505,0.3188453,0.25437084,0.98417515,0.51107794,0.26805487,0.6220271,0.69183534,784.5055,784.10254,783.69965,794.57874,
0.87086505,0.3188453,0.25437084,0.98417515,0.51107794,0.26805487,0.6220271,0.69183534,780.07324,785.31134,778.86444,785.31134,
0.87086505,0.3188453,0.25437084,0.98417515,0.51107794,0.26805487,0.6220271,0.69183534,785.7143,788.93774,781685,784.10254,
0.87086505,0.3188453,0.25437084,0.98417515,0.51107794,0.26805487,0.6220271,0.69183534,792.96704,790.54944,786.52014,788.5348,
0.87086505,0.3188453,0.25437084,0.98417515,0.51107794,0.26805487,0.6220271,0.69183534,794.17584,786.1172,782.49084,789.34064,
0.87086505,0.3188453,0.25437084,0.98417515,0.51107794,0.26805487,0.6220271,0.69183534,796.1905,788.1319,784.90845,786.52014,
0.87086505,0.3188453,0.25437084,0.98417515,0.51107794,0.26805487,0.6220271,0.69183534,802.23444,790.14655,786.52014,790.14655,
0.87086505,0.3188453,0.25437084,0.98417515,0.51107794,0.26805487,0.6220271,0.69183534,806.6667,792.5641,784.90845,797.3993,
0.87086505,0.3188453,0.25437084,0.98417515,0.51107794,0.26805487,0.6220271,0.69183534,807.0696,793.7729,784.5055,795.38464,
0.87086505,0.3188453,0.25437084,0.98417515,0.51107794,0.26805487,0.6220271,0.69183534,807.8755,792.5641,787326,790.9524,
0.87086505,0.3188453,0.25437084,0.98417515,0.51107794,0.26805487,0.6220271,0.69183534,811.50183,795.38464,790.14655,789.34064,
0.87086505,0.3188453,0.25437084,0.98417515,0.51107794,0.26805487,0.6220271,0.69183534,808.68134,796.5934,784.10254,796.5934,
0.87086505,0.3188453,0.25437084,0.98417515,0.51107794,0.26805487,0.6220271,0.69183534,801.4286,796.5934,777.25275,799.41394,
0.87086505,0.3188453,0.25437084,0.98417515,0.51107794,0.26805487,0.6220271,0.69183534,803.0403,798.60803,777.6557,789.7436,
0.87086505,0.3188453,0.25437084,0.98417515,0.51107794,0.26805487,0.6220271,0.69183534,801.02563,797.3993,781.28204,784.90845,
0.87086505,0.3188453,0.25437084,0.98417515,0.51107794,0.26805487,0.6220271,0.69183534,797.3993,792.96704,783.2967,789.34064,
0.87086505,0.3188453,0.25437084,0.98417515,0.51107794,0.26805487,0.6220271,0.69183534,797.3993,791.3553,784.5055,789.7436,
0.87086505,0.3188453,0.25437084,0.98417515,0.51107794,0.26805487,0.6220271,0.69183534,789.7436,792.5641,786.1172,784.10254,
0.87086505,0.3188453,0.25437084,0.98417515,0.51107794,0.26805487,0.6220271,0.69183534,790.54944,790.9524,780.07324,782.0879,
0.87086505,0.3188453,0.25437084,0.98417515,0.51107794,0.26805487,0.6220271,0.69183534,798.20514,792.5641,772.8205,783.69965,
0.87086505,0.3188453,0.25437084,0.98417515,0.51107794,0.26805487,0.6220271,0.69183534,801.8315,796.99634,778.0586,791.75824,
0.87086505,0.3188453,0.25437084,0.98417515,0.51107794,0.26805487,0.6220271,0.69183534,796.99634,795.78754,787326,790.54944,
0.87086505,0.3188453,0.25437084,0.98417515,0.51107794,0.26805487,0.6220271,0.69183534,791.3553,789.34064,790.14655,782.8938,
0.90586233,0.31805807,0.32186437,0.9987081,0.5308188,0.26783755,0.6282054,0.7260106,801.8315,794.9817,799011,792.96704,
0.90586233,0.31805807,0.32186437,0.9987081,0.5308188,0.26783755,0.6282054,0.7260106,804.2491,797.8022,802.23444,801.4286,
0.90586233,0.31805807,0.32186437,0.9987081,0.5308188,0.26783755,0.6282054,0.7260106,794.57874,790.9524,791.75824,792.5641,
0.90586233,0.31805807,0.32186437,0.9987081,0.5308188,0.26783755,0.6282054,0.7260106,791.75824,789.34064,781.28204,792.5641,
0.90586233,0.31805807,0.32186437,0.9987081,0.5308188,0.26783755,0.6282054,0.7260106,792.5641,792.1612,779.67035,788.5348,
0.90586233,0.31805807,0.32186437,0.9987081,0.5308188,0.26783755,0.6282054,0.7260106,793.36993,791.3553,780.07324,778.46155,
0.90586233,0.31805807,0.32186437,0.9987081,0.5308188,0.26783755,0.6282054,0.7260106,789.7436,792.1612,782.49084,784.5055,
0.90586233,0.31805807,0.32186437,0.9987081,0.5308188,0.26783755,0.6282054,0.7260106,790.14655,792.96704,784.90845,789.7436,
0.90586233,0.31805807,0.32186437,0.9987081,0.5308188,0.26783755,0.6282054,0.7260106,787.72894,786.1172,781.28204,782.0879,
0.90586233,0.31805807,0.32186437,0.9987081,0.5308188,0.26783755,0.6282054,0.7260106,784.5055,777.25275,773.6264,784.10254,
0.90586233,0.31805807,0.32186437,0.9987081,0.5308188,0.26783755,0.6282054,0.7260106,799.41394,780.4762,777.25275,801.4286,
0.90586233,0.31805807,0.32186437,0.9987081,0.5308188,0.26783755,0.6282054,0.7260106,802.6374,787326,776.8498,796.99634,
0.90586233,0.31805807,0.32186437,0.9987081,0.5308188,0.26783755,0.6282054,0.7260106,782.0879,785.31134,771.6117,777.25275,
0.90586233,0.31805807,0.32186437,0.9987081,0.5308188,0.26783755,0.6282054,0.7260106,766.3736,782.8938,780.07324,771.6117,
0.90586233,0.31805807,0.32186437,0.9987081,0.5308188,0.26783755,0.6282054,0.7260106,760.7326,785.31134,785.31134,765.16486,
0.90586233,0.31805807,0.32186437,0.9987081,0.5308188,0.26783755,0.6282054,0.7260106,753.0769,784.90845,786.52014,759.12085,
0.90586233,0.31805807,0.32186437,0.9987081,0.5308188,0.26783755,0.6282054,0.7260106,752.27106,787326,791.75824,766.77655,
0.90586233,0.31805807,0.32186437,0.9987081,0.5308188,0.26783755,0.6282054,0.7260106,749.45056,789.7436,787326,763.5531,
0.90586233,0.31805807,0.32186437,0.9987081,0.5308188,0.26783755,0.6282054,0.7260106,739.3773,777.6557,771.6117,763.1502,
0.90586233,0.31805807,0.32186437,0.9987081,0.5308188,0.26783755,0.6282054,0.7260106,747.8388,777.25275,763.5531,771.2088,
0.90586233,0.31805807,0.32186437,0.9987081,0.5308188,0.26783755,0.6282054,0.7260106,755.89746,778.0586,767.1795,772.8205,
0.90586233,0.31805807,0.32186437,0.9987081,0.5308188,0.26783755,0.6282054,0.7260106,751.06226,778.86444,774.83514,775.2381,
0.90586233,0.31805807,0.32186437,0.9987081,0.5308188,0.26783755,0.6282054,0.7260106,752.27106,778.86444,780.87915,778.86444,
0.90586233,0.31805807,0.32186437,0.9987081,0.5308188,0.26783755,0.6282054,0.7260106,756.7033,772.01465,774.0293,776.04395,
0.90586233,0.31805807,0.32186437,0.9987081,0.5308188,0.26783755,0.6282054,0.7260106,756.30035,772.01465,769.59705,772.8205,
0.90586233,0.31805807,0.32186437,0.9987081,0.5308188,0.26783755,0.6282054,0.7260106,755.4945,773.6264,779.2674,772.8205,
0.9367871,0.30604532,0.3426247,0.9987081,0.52767605,0.26347482,0.63214093,0.7413274,758315,775.2381,780.4762,775.64105,
0.9367871,0.30604532,0.3426247,0.9987081,0.52767605,0.26347482,0.63214093,0.7413274,759.92676,775.64105,774.43225,782.49084,
0.9367871,0.30604532,0.3426247,0.9987081,0.52767605,0.26347482,0.63214093,0.7413274,760.32965,778.86444,771.2088,794.9817,
0.9367871,0.30604532,0.3426247,0.9987081,0.52767605,0.26347482,0.63214093,0.7413274,767.1795,783.2967,776.4469,803.44324,
0.9367871,0.30604532,0.3426247,0.9987081,0.52767605,0.26347482,0.63214093,0.7413274,769.59705,780.07324,780.87915,790.14655,
0.9367871,0.30604532,0.3426247,0.9987081,0.52767605,0.26347482,0.63214093,0.7413274,759.92676,773.22345,780.07324,774.83514,
0.9367871,0.30604532,0.3426247,0.9987081,0.52767605,0.26347482,0.63214093,0.7413274,757.9121,773.6264,781.28204,776.04395,
0.9367871,0.30604532,0.3426247,0.9987081,0.52767605,0.26347482,0.63214093,0.7413274,760.32965,775.64105,784.10254,778.0586,
0.9367871,0.30604532,0.3426247,0.9987081,0.52767605,0.26347482,0.63214093,0.7413274,762.3443,775.2381,778.86444,774.83514,
0.9367871,0.30604532,0.3426247,0.9987081,0.52767605,0.26347482,0.63214093,0.7413274,764.7619,772.01465,770.0,780.4762,
0.9367871,0.30604532,0.3426247,0.9987081,0.52767605,0.26347482,0.63214093,0.7413274,768.3883,772.01465,772.8205,788.93774,
0.9367871,0.30604532,0.3426247,0.9987081,0.52767605,0.26347482,0.63214093,0.7413274,769.59705,772.01465,776.4469,790.9524,
0.9367871,0.30604532,0.3426247,0.9987081,0.52767605,0.26347482,0.63214093,0.7413274,770.40295,772.8205,776.4469,800.2198,
0.9367871,0.30604532,0.3426247,0.9987081,0.52767605,0.26347482,0.63214093,0.7413274,770.40295,776.4469,778.46155,802.6374,
0.9367871,0.30604532,0.3426247,0.9987081,0.52767605,0.26347482,0.63214093,0.7413274,770.0,776.8498,780.87915,790.14655,
0.9367871,0.30604532,0.3426247,0.9987081,0.52767605,0.26347482,0.63214093,0.7413274,773.6264,778.46155,786.9231,796.99634,
0.9367871,0.30604532,0.3426247,0.9987081,0.52767605,0.26347482,0.63214093,0.7413274,775.2381,780.4762,787326,803.44324,
0.9367871,0.30604532,0.3426247,0.9987081,0.52767605,0.26347482,0.63214093,0.7413274,776.4469,777.6557,781.28204,792.1612,
0.9367871,0.30604532,0.3426247,0.9987081,0.52767605,0.26347482,0.63214093,0.7413274,767.1795,778.46155,776.4469,788.5348,
0.9367871,0.30604532,0.3426247,0.9987081,0.52767605,0.26347482,0.63214093,0.7413274,762.3443,779.2674,772.4176,786.9231,
0.9367871,0.30604532,0.3426247,0.9987081,0.52767605,0.26347482,0.63214093,0.7413274,761.53845,780.07324,772.8205,786.9231,
0.9367871,0.30604532,0.3426247,0.9987081,0.52767605,0.26347482,0.63214093,0.7413274,755.89746,780.4762,769.59705,792.5641,
0.9367871,0.30604532,0.3426247,0.9987081,0.52767605,0.26347482,0.63214093,0.7413274,758315,778.0586,765.56775,792.1612,
0.9367871,0.30604532,0.3426247,0.9987081,0.52767605,0.26347482,0.63214093,0.7413274,763.95605,774.43225,774.43225,789.34064,
0.9367871,0.30604532,0.3426247,0.9987081,0.52767605,0.26347482,0.63214093,0.7413274,762.74725,774.43225,780.07324,785.31134,
0.9367871,0.30604532,0.3426247,0.9987081,0.52767605,0.26347482,0.63214093,0.7413274,765.56775,778.86444,771.2088,780.87915,
0.9988908,0.30011937,0.34375736,0.9987081,0.5171555,0.25401205,0.63410723,0.7434784,770.0,781.28204,771.6117,783.2967,
0.9988908,0.30011937,0.34375736,0.9987081,0.5171555,0.25401205,0.63410723,0.7434784,764.7619,782.49084,779.2674,788.93774,
0.9988908,0.30011937,0.34375736,0.9987081,0.5171555,0.25401205,0.63410723,0.7434784,759.92676,786.9231,786.1172,792.5641,
0.9988908,0.30011937,0.34375736,0.9987081,0.5171555,0.25401205,0.63410723,0.7434784,758.71796,785.31134,786.9231,792.1612,
0.9988908,0.30011937,0.34375736,0.9987081,0.5171555,0.25401205,0.63410723,0.7434784,755.89746,782.0879,774.0293,786.9231,
0.9988908,0.30011937,0.34375736,0.9987081,0.5171555,0.25401205,0.63410723,0.7434784,756.30035,782.8938,770.80585,782.49084,
0.9988908,0.30011937,0.34375736,0.9987081,0.5171555,0.25401205,0.63410723,0.7434784,763.5531,780.4762,775.64105,775.2381,
0.9988908,0.30011937,0.34375736,0.9987081,0.5171555,0.25401205,0.63410723,0.7434784,775.2381,784.10254,774.43225,775.64105,
0.9988908,0.30011937,0.34375736,0.9987081,0.5171555,0.25401205,0.63410723,0.7434784,780.87915,786.52014,774.0293,780.4762,
0.9988908,0.30011937,0.34375736,0.9987081,0.5171555,0.25401205,0.63410723,0.7434784,783.69965,783.2967,777.25275,776.8498,
0.9988908,0.30011937,0.34375736,0.9987081,0.5171555,0.25401205,0.63410723,0.7434784,784.5055,785.31134,784.10254,775.64105,
0.9988908,0.30011937,0.34375736,0.9987081,0.5171555,0.25401205,0.63410723,0.7434784,784.10254,784.10254,787326,778.46155,
0.9988908,0.30011937,0.34375736,0.9987081,0.5171555,0.25401205,0.63410723,0.7434784,786.1172,781685,788.93774,787326,
0.9988908,0.30011937,0.34375736,0.9987081,0.5171555,0.25401205,0.63410723,0.7434784,781685,784.10254,786.1172,787.72894,
0.9988908,0.30011937,0.34375736,0.9987081,0.5171555,0.25401205,0.63410723,0.7434784,778.46155,785.7143,780.87915,782.8938,
0.9988908,0.30011937,0.34375736,0.9987081,0.5171555,0.25401205,0.63410723,0.7434784,783.2967,787.72894,780.07324,780.4762,
0.9988908,0.30011937,0.34375736,0.9987081,0.5171555,0.25401205,0.63410723,0.7434784,784.90845,784.5055,776.04395,783.69965,
0.9988908,0.30011937,0.34375736,0.9987081,0.5171555,0.25401205,0.63410723,0.7434784,782.49084,784.10254,776.8498,790.14655,
0.9988908,0.30011937,0.34375736,0.9987081,0.5171555,0.25401205,0.63410723,0.7434784,782.0879,786.1172,782.8938,786.52014,
0.9988908,0.30011937,0.34375736,0.9987081,0.5171555,0.25401205,0.63410723,0.7434784,787326,780.87915,779.67035,777.6557,
0.9988908,0.30011937,0.34375736,0.9987081,0.5171555,0.25401205,0.63410723,0.7434784,784.10254,772.4176,769.19415,776.4469,
0.9988908,0.30011937,0.34375736,0.9987081,0.5171555,0.25401205,0.63410723,0.7434784,784.10254,771.2088,771.2088,780.07324,
0.9988908,0.30011937,0.34375736,0.9987081,0.5171555,0.25401205,0.63410723,0.7434784,786.1172,775.64105,777.25275,788.5348,
0.9988908,0.30011937,0.34375736,0.9987081,0.5171555,0.25401205,0.63410723,0.7434784,780.4762,772.01465,777.6557,784.5055,
0.9988908,0.30011937,0.34375736,0.9987081,0.5171555,0.25401205,0.63410723,0.7434784,775.2381,771.2088,774.83514,772.4176,
0.9988908,0.30011937,0.34375736,0.9987081,0.5171555,0.25401205,0.63410723,0.7434784,782.49084,776.4469,771.6117,774.0293,
1.0706985,0.30011937,0.34375736,0.9987081,0.5185474,0.23967399,0.63337755,0.74559194,786.1172,778.0586,770.80585,778.0586,
1.0706985,0.30011937,0.34375736,0.9987081,0.5185474,0.23967399,0.63337755,0.74559194,786.52014,778.0586,763.1502,779.67035,
1.0706985,0.30011937,0.34375736,0.9987081,0.5185474,0.23967399,0.63337755,0.74559194,792.1612,780.4762,763.1502,779.2674,
1.0706985,0.30011937,0.34375736,0.9987081,0.5185474,0.23967399,0.63337755,0.74559194,792.5641,779.2674,777.6557,780.4762,
1.0706985,0.30011937,0.34375736,0.9987081,0.5185474,0.23967399,0.63337755,0.74559194,795.38464,776.4469,777.25275,784.90845,
1.0706985,0.30011937,0.34375736,0.9987081,0.5185474,0.23967399,0.63337755,0.74559194,796.99634,778.46155,765.9707,788.1319,
1.0706985,0.30011937,0.34375736,0.9987081,0.5185474,0.23967399,0.63337755,0.74559194,793.36993,778.86444,770.0,788.93774,
1.0706985,0.30011937,0.34375736,0.9987081,0.5185474,0.23967399,0.63337755,0.74559194,791.75824,779.2674,777.6557,790.9524,
1.0706985,0.30011937,0.34375736,0.9987081,0.5185474,0.23967399,0.63337755,0.74559194,793.7729,779.67035,778.86444,786.52014,
1.0706985,0.30011937,0.34375736,0.9987081,0.5185474,0.23967399,0.63337755,0.74559194,796.1905,784.10254,780.07324,791.3553,
1.0706985,0.30011937,0.34375736,0.9987081,0.5185474,0.23967399,0.63337755,0.74559194,799011,785.7143,786.9231,795.78754,
1.0706985,0.30011937,0.34375736,0.9987081,0.5185474,0.23967399,0.63337755,0.74559194,800.2198,784.90845,788.1319,796.99634,
1.0706985,0.30011937,0.34375736,0.9987081,0.5185474,0.23967399,0.63337755,0.74559194,793.36993,781685,782.0879,793.7729,
1.0706985,0.30011937,0.34375736,0.9987081,0.5185474,0.23967399,0.63337755,0.74559194,787326,776.8498,779.67035,780.07324,
1.0706985,0.30011937,0.34375736,0.9987081,0.5185474,0.23967399,0.63337755,0.74559194,784.5055,777.25275,777.25275,772.4176,
1.0706985,0.30011937,0.34375736,0.9987081,0.5185474,0.23967399,0.63337755,0.74559194,786.52014,779.2674,778.46155,778.0586,
1.0706985,0.30011937,0.34375736,0.9987081,0.5185474,0.23967399,0.63337755,0.74559194,792.96704,786.1172,785.31134,787326,
1.0706985,0.30011937,0.34375736,0.9987081,0.5185474,0.23967399,0.63337755,0.74559194,794.57874,788.5348,780.4762,790.14655,
1.0706985,0.30011937,0.34375736,0.9987081,0.5185474,0.23967399,0.63337755,0.74559194,794.57874,788.1319,776.04395,786.9231,
1.0706985,0.30011937,0.34375736,0.9987081,0.5185474,0.23967399,0.63337755,0.74559194,794.57874,790.9524,780.07324,780.4762,
1.0706985,0.30011937,0.34375736,0.9987081,0.5185474,0.23967399,0.63337755,0.74559194,795.38464,792.1612,783.69965,790.14655,
1.0706985,0.30011937,0.34375736,0.9987081,0.5185474,0.23967399,0.63337755,0.74559194,794.17584,787.72894,787326,799.81683,
1.0706985,0.30011937,0.34375736,0.9987081,0.5185474,0.23967399,0.63337755,0.74559194,791.75824,785.31134,787.72894,794.17584,
1.0706985,0.30011937,0.34375736,0.9987081,0.5185474,0.23967399,0.63337755,0.74559194,788.93774,784.90845,787326,783.69965,
1.0706985,0.30011937,0.34375736,0.9987081,0.5185474,0.23967399,0.63337755,0.74559194,787326,778.46155,786.9231,773.22345,
1.0706985,0.30011937,0.34375736,0.9987081,0.5185474,0.23967399,0.63337755,0.74559194,783.2967,780.4762,785.31134,774.0293,
1.1085074,0.30011937,0.34386423,0.9987081,0.53757143,0.22398713,0.62859774,0.75165296,783.69965,782.0879,786.9231,779.2674,
1.1085074,0.30011937,0.34386423,0.9987081,0.53757143,0.22398713,0.62859774,0.75165296,783.69965,781.28204,786.9231,779.2674,
1.1085074,0.30011937,0.34386423,0.9987081,0.53757143,0.22398713,0.62859774,0.75165296,781.28204,788.1319,786.1172,776.04395,
1.1085074,0.30011937,0.34386423,0.9987081,0.53757143,0.22398713,0.62859774,0.75165296,779.67035,790.9524,784.10254,767.98535,
1.1085074,0.30011937,0.34386423,0.9987081,0.53757143,0.22398713,0.62859774,0.75165296,778.0586,792.96704,785.7143,762.74725,
1.1085074,0.30011937,0.34386423,0.9987081,0.53757143,0.22398713,0.62859774,0.75165296,773.22345,799.41394,789.7436,766.77655,
1.1085074,0.30011937,0.34386423,0.9987081,0.53757143,0.22398713,0.62859774,0.75165296,764.35895,803.8461,791.75824,769.59705,
1.1085074,0.30011937,0.34386423,0.9987081,0.53757143,0.22398713,0.62859774,0.75165296,761.13556,805.05493,798.60803,765.16486,
1.1085074,0.30011937,0.34386423,0.9987081,0.53757143,0.22398713,0.62859774,0.75165296,767.1795,803.8461,801.8315,761.13556,
1.1085074,0.30011937,0.34386423,0.9987081,0.53757143,0.22398713,0.62859774,0.75165296,759.92676,805.8608,801.4286,751.4652,
1.1085074,0.30011937,0.34386423,0.9987081,0.53757143,0.22398713,0.62859774,0.75165296,742.6007,809.4872,799011,734.94507,
1.1085074,0.30011937,0.34386423,0.9987081,0.53757143,0.22398713,0.62859774,0.75165296,725.6777,803.8461,791.75824,720.0366,
1.1085074,0.30011937,0.34386423,0.9987081,0.53757143,0.22398713,0.62859774,0.75165296,713.9927,806.6667,790.14655,712381,
1.1085074,0.30011937,0.34386423,0.9987081,0.53757143,0.22398713,0.62859774,0.75165296,705.9341,809.0842,791.3553,708.3516,
1.1085074,0.30011937,0.34386423,0.9987081,0.53757143,0.22398713,0.62859774,0.75165296,695.4579,801.8315,793.7729,698.2784,
1.1085074,0.30011937,0.34386423,0.9987081,0.53757143,0.22398713,0.62859774,0.75165296,696.26373,801.8315,790.54944,695.4579,
1.1085074,0.30011937,0.34386423,0.9987081,0.53757143,0.22398713,0.62859774,0.75165296,697.8755,801.8315,785.31134,695.4579,
1.1085074,0.30011937,0.34386423,0.9987081,0.53757143,0.22398713,0.62859774,0.75165296,686.99634,801.02563,784.5055,678.1319,
1.1085074,0.30011937,0.34386423,0.9987081,0.53757143,0.22398713,0.62859774,0.75165296,684.57874,803.44324,789.34064,671.28204,
1.1085074,0.30011937,0.34386423,0.9987081,0.53757143,0.22398713,0.62859774,0.75165296,685.38464,802.6374,794.17584,676.52014,
1.1085074,0.30011937,0.34386423,0.9987081,0.53757143,0.22398713,0.62859774,0.75165296,686.99634,804.2491,795.78754,676.52014,
1.1085074,0.30011937,0.34386423,0.9987081,0.53757143,0.22398713,0.62859774,0.75165296,696.6667,811.50183,788.5348,681.3553,
1.1085074,0.30011937,0.34386423,0.9987081,0.53757143,0.22398713,0.62859774,0.75165296,703.91943,810293,787326,691.4286,
1.1085074,0.30011937,0.34386423,0.9987081,0.53757143,0.22398713,0.62859774,0.75165296,703.91943,807.0696,794.17584,698.68134,
1.1085074,0.30011937,0.34386423,0.9987081,0.53757143,0.22398713,0.62859774,0.75165296,701.50183,807.47253,793.36993,704.3223,
1.1085074,0.30011937,0.34386423,0.9987081,0.53757143,0.22398713,0.62859774,0.75165296,693.44324,802.23444,788.93774,707.9487,
1.1085074,0.30011937,0.34667492,0.9987081,0.5515585,0.2120772,0.6200177,0.7649227,690.6227,794.9817,790.14655,710.7692,
1.1085074,0.30011937,0.34667492,0.9987081,0.5515585,0.2120772,0.6200177,0.7649227,704.3223,797.3993,793.36993,713.1868,
1.1085074,0.30011937,0.34667492,0.9987081,0.5515585,0.2120772,0.6200177,0.7649227,715.2015,801.02563,792.5641,716.4103,
1.1085074,0.30011937,0.34667492,0.9987081,0.5515585,0.2120772,0.6200177,0.7649227,715.6044,796.5934,790.14655,715.6044,
1.1085074,0.30011937,0.34667492,0.9987081,0.5515585,0.2120772,0.6200177,0.7649227,716.4103,791.3553,788.1319,707.9487,
1.1085074,0.30011937,0.34667492,0.9987081,0.5515585,0.2120772,0.6200177,0.7649227,718.4249,790.14655,790.9524,716.4103,
1.1085074,0.30011937,0.34667492,0.9987081,0.5515585,0.2120772,0.6200177,0.7649227,727.6923,791.3553,790.14655,728.49817,
1.1085074,0.30011937,0.34667492,0.9987081,0.5515585,0.2120772,0.6200177,0.7649227,733.73627,791.3553,789.34064,724.87177,
1.1085074,0.30011937,0.34667492,0.9987081,0.5515585,0.2120772,0.6200177,0.7649227,726.8865,790.9524,786.52014,722.4542,
1.1085074,0.30011937,0.34667492,0.9987081,0.5515585,0.2120772,0.6200177,0.7649227,731.7216,793.36993,787326,726.4835,
1.1085074,0.30011937,0.34667492,0.9987081,0.5515585,0.2120772,0.6200177,0.7649227,738.1685,789.7436,790.9524,730.9158,
1.1085074,0.30011937,0.34667492,0.9987081,0.5515585,0.2120772,0.6200177,0.7649227,740.58606,791.75824,792.5641,742.1978,
1.1085074,0.30011937,0.34667492,0.9987081,0.5515585,0.2120772,0.6200177,0.7649227,743.00366,795.38464,790.54944,744.61536,
1.1085074,0.30011937,0.34667492,0.9987081,0.5515585,0.2120772,0.6200177,0.7649227,744.61536,790.14655,786.9231,738.5714,
1.1085074,0.30011937,0.34667492,0.9987081,0.5515585,0.2120772,0.6200177,0.7649227,742.6007,785.7143,787.72894,740.58606,
1.1085074,0.30011937,0.34667492,0.9987081,0.5515585,0.2120772,0.6200177,0.7649227,737.76556,788.1319,787326,743.00366,
1.1085074,0.30011937,0.34667492,0.9987081,0.5515585,0.2120772,0.6200177,0.7649227,742.6007,787.72894,783.2967,745.42126,
1.1085074,0.30011937,0.34667492,0.9987081,0.5515585,0.2120772,0.6200177,0.7649227,749.45056,783.69965,784.10254,745.82416,
1.1085074,0.30011937,0.34667492,0.9987081,0.5515585,0.2120772,0.6200177,0.7649227,752.27106,787.72894,785.7143,747.03296,
1.1085074,0.30011937,0.34667492,0.9987081,0.5515585,0.2120772,0.6200177,0.7649227,751.8681,791.75824,781.28204,748.24176,
1.1085074,0.30011937,0.34667492,0.9987081,0.5515585,0.2120772,0.6200177,0.7649227,759.5238,789.7436,784.10254,755.4945,
1.1085074,0.30011937,0.34667492,0.9987081,0.5515585,0.2120772,0.6200177,0.7649227,766.3736,786.1172,785.7143,763.5531,
1.1085074,0.30011937,0.34667492,0.9987081,0.5515585,0.2120772,0.6200177,0.7649227,763.95605,782.49084,782.0879,755.09155,
1.1085074,0.30011937,0.34667492,0.9987081,0.5515585,0.2120772,0.6200177,0.7649227,761.13556,780.87915,783.69965,751.8681,
1.1085074,0.30011937,0.34667492,0.9987081,0.5515585,0.2120772,0.6200177,0.7649227,755.4945,782.8938,789.34064,756.7033,
1.1085074,0.30011937,0.34667492,0.9987081,0.5515585,0.2120772,0.6200177,0.7649227,755.09155,782.49084,787.72894,763.1502,
1.1085074,0.30000794,0.35916498,0.9987081,0.5704766,0.20699403,0.6093564,0.78618896,767.1795,786.1172,782.8938,773.22345,
1.1085074,0.30000794,0.35916498,0.9987081,0.5704766,0.20699403,0.6093564,0.78618896,774.0293,785.31134,785.31134,773.22345,
1.1085074,0.30000794,0.35916498,0.9987081,0.5704766,0.20699403,0.6093564,0.78618896,773.6264,783.69965,783.2967,761.13556,
1.1085074,0.30000794,0.35916498,0.9987081,0.5704766,0.20699403,0.6093564,0.78618896,764.35895,782.8938,780.4762,756.30035,
1.1085074,0.30000794,0.35916498,0.9987081,0.5704766,0.20699403,0.6093564,0.78618896,770.0,782.8938,787.72894,761.13556,
1.1085074,0.30000794,0.35916498,0.9987081,0.5704766,0.20699403,0.6093564,0.78618896,778.86444,785.31134,784.5055,763.95605,
1.1085074,0.30000794,0.35916498,0.9987081,0.5704766,0.20699403,0.6093564,0.78618896,775.2381,789.34064,783.69965,770.80585,
1.1085074,0.30000794,0.35916498,0.9987081,0.5704766,0.20699403,0.6093564,0.78618896,782.0879,793.7729,789.34064,778.46155,
1.1085074,0.30000794,0.35916498,0.9987081,0.5704766,0.20699403,0.6093564,0.78618896,776.8498,791.3553,787.72894,776.8498,
1.1085074,0.30000794,0.35916498,0.9987081,0.5704766,0.20699403,0.6093564,0.78618896,770.80585,783.69965,784.90845,779.67035,
1.1085074,0.30000794,0.35916498,0.9987081,0.5704766,0.20699403,0.6093564,0.78618896,778.46155,776.8498,781685,785.31134,
1.1085074,0.30000794,0.35916498,0.9987081,0.5704766,0.20699403,0.6093564,0.78618896,779.2674,778.0586,782.8938,778.86444,
1.1085074,0.30000794,0.35916498,0.9987081,0.5704766,0.20699403,0.6093564,0.78618896,782.49084,783.69965,783.2967,775.64105,
1.1085074,0.30000794,0.35916498,0.9987081,0.5704766,0.20699403,0.6093564,0.78618896,788.5348,783.2967,782.0879,776.8498,
1.1085074,0.30000794,0.35916498,0.9987081,0.5704766,0.20699403,0.6093564,0.78618896,786.9231,786.1172,782.8938,775.64105,
1.1085074,0.30000794,0.35916498,0.9987081,0.5704766,0.20699403,0.6093564,0.78618896,782.8938,786.52014,781685,786.52014,
1.1085074,0.30000794,0.35916498,0.9987081,0.5704766,0.20699403,0.6093564,0.78618896,774.43225,782.8938,782.49084,791.75824,
1.1085074,0.30000794,0.35916498,0.9987081,0.5704766,0.20699403,0.6093564,0.78618896,772.4176,784.10254,783.69965,784.10254,
1.1085074,0.30000794,0.35916498,0.9987081,0.5704766,0.20699403,0.6093564,0.78618896,776.4469,784.90845,782.0879,786.52014,
1.1085074,0.30000794,0.35916498,0.9987081,0.5704766,0.20699403,0.6093564,0.78618896,784.90845,785.31134,782.8938,794.17584,
1.1085074,0.30000794,0.35916498,0.9987081,0.5704766,0.20699403,0.6093564,0.78618896,784.90845,783.2967,782.8938,794.17584,
1.1085074,0.30000794,0.35916498,0.9987081,0.5704766,0.20699403,0.6093564,0.78618896,784.10254,783.2967,785.31134,784.90845,
1.1085074,0.30000794,0.35916498,0.9987081,0.5704766,0.20699403,0.6093564,0.78618896,784.10254,782.0879,789.34064,777.25275,
1.1085074,0.30000794,0.35916498,0.9987081,0.5704766,0.20699403,0.6093564,0.78618896,783.2967,778.86444,784.90845,777.6557,
1.1085074,0.30000794,0.35916498,0.9987081,0.5704766,0.20699403,0.6093564,0.78618896,793.36993,780.87915,784.10254,787.72894,
1.1085074,0.30000794,0.35916498,0.9987081,0.5704766,0.20699403,0.6093564,0.78618896,791.75824,781685,783.2967,796.1905,
,,,,,,,,,,,,/muse/elements/blink
1.1085074,0.29790553,0.39638242,0.9987081,0.5946962,0.20815936,0.5868656,0.8145185,789.7436,784.10254,784.5055,798.60803,
1.1085074,0.29790553,0.39638242,0.9987081,0.5946962,0.20815936,0.5868656,0.8145185,795.78754,785.31134,788.5348,800.2198,
1.1085074,0.29790553,0.39638242,0.9987081,0.5946962,0.20815936,0.5868656,0.8145185,801.4286,784.10254,786.52014,796.99634,
1.1085074,0.29790553,0.39638242,0.9987081,0.5946962,0.20815936,0.5868656,0.8145185,800.2198,782.49084,785.31134,796.1905,
1.1085074,0.29790553,0.39638242,0.9987081,0.5946962,0.20815936,0.5868656,0.8145185,794.9817,787326,786.9231,790.54944,
1.1085074,0.29790553,0.39638242,0.9987081,0.5946962,0.20815936,0.5868656,0.8145185,800.2198,788.1319,786.52014,792.5641,
1.1085074,0.29790553,0.39638242,0.9987081,0.5946962,0.20815936,0.5868656,0.8145185,799011,783.2967,783.69965,790.54944,
1.1085074,0.29790553,0.39638242,0.9987081,0.5946962,0.20815936,0.5868656,0.8145185,799.41394,784.90845,784.10254,783.69965,
1.1085074,0.29790553,0.39638242,0.9987081,0.5946962,0.20815936,0.5868656,0.8145185,804.65204,787.72894,787.72894,790.14655,
1.1085074,0.29790553,0.39638242,0.9987081,0.5946962,0.20815936,0.5868656,0.8145185,804.2491,783.2967,784.90845,796.5934,
1.1085074,0.29790553,0.39638242,0.9987081,0.5946962,0.20815936,0.5868656,0.8145185,801.02563,782.0879,780.4762,786.9231,
1.1085074,0.29790553,0.39638242,0.9987081,0.5946962,0.20815936,0.5868656,0.8145185,794.9817,782.8938,783.69965,784.90845,
1.1085074,0.29790553,0.39638242,0.9987081,0.5946962,0.20815936,0.5868656,0.8145185,795.78754,780.4762,787326,791.75824,
1.1085074,0.29790553,0.39638242,0.9987081,0.5946962,0.20815936,0.5868656,0.8145185,805.05493,779.2674,787326,790.14655,
1.1085074,0.29790553,0.39638242,0.9987081,0.5946962,0.20815936,0.5868656,0.8145185,808.2784,783.69965,782.49084,789.34064,
1.1085074,0.29790553,0.39638242,0.9987081,0.5946962,0.20815936,0.5868656,0.8145185,806.26373,784.90845,777.25275,795.38464,
1.1085074,0.29790553,0.39638242,0.9987081,0.5946962,0.20815936,0.5868656,0.8145185,800.6227,782.49084,778.0586,796.5934,
1.1085074,0.29790553,0.39638242,0.9987081,0.5946962,0.20815936,0.5868656,0.8145185,801.02563,786.52014,781.28204,791.75824,
1.1085074,0.29790553,0.39638242,0.9987081,0.5946962,0.20815936,0.5868656,0.8145185,802.23444,787.72894,785.31134,794.9817,
1.1085074,0.29790553,0.39638242,0.9987081,0.5946962,0.20815936,0.5868656,0.8145185,804.2491,784.10254,787.72894,794.9817,
1.1085074,0.29790553,0.39638242,0.9987081,0.5946962,0.20815936,0.5868656,0.8145185,802.6374,782.49084,782.0879,788.93774,
1.1085074,0.29790553,0.39638242,0.9987081,0.5946962,0.20815936,0.5868656,0.8145185,796.99634,782.8938,780.07324,786.52014,
1.1085074,0.29790553,0.39638242,0.9987081,0.5946962,0.20815936,0.5868656,0.8145185,799011,779.2674,780.87915,795.38464,
1.1085074,0.29790553,0.39638242,0.9987081,0.5946962,0.20815936,0.5868656,0.8145185,805.4579,780.87915,777.6557,796.99634,
1.1085074,0.29790553,0.39638242,0.9987081,0.5946962,0.20815936,0.5868656,0.8145185,808.68134,785.31134,778.0586,797.3993,
1.1085074,0.29790553,0.39638242,0.9987081,0.5946962,0.20815936,0.5868656,0.8145185,808.2784,784.5055,782.8938,802.23444,
1.1085074,0.29711562,0.41992676,0.9987081,0.6259019,0.21242863,0.5637911,0.84869075,808.68134,783.69965,786.52014,802.23444,
1.1085074,0.29711562,0.41992676,0.9987081,0.6259019,0.21242863,0.5637911,0.84869075,801.8315,782.0879,785.31134,793.36993,
1.1085074,0.29711562,0.41992676,0.9987081,0.6259019,0.21242863,0.5637911,0.84869075,806.26373,781685,787.72894,793.36993,
1.1085074,0.29711562,0.41992676,0.9987081,0.6259019,0.21242863,0.5637911,0.84869075,812.71063,780.4762,787326,799.81683,
1.1085074,0.29711562,0.41992676,0.9987081,0.6259019,0.21242863,0.5637911,0.84869075,805.8608,780.07324,783.2967,797.3993,
1.1085074,0.29711562,0.41992676,0.9987081,0.6259019,0.21242863,0.5637911,0.84869075,799.81683,777.6557,788.1319,788.5348,
1.1085074,0.29711562,0.41992676,0.9987081,0.6259019,0.21242863,0.5637911,0.84869075,801.4286,776.4469,790.14655,790.54944,
1.1085074,0.29711562,0.41992676,0.9987081,0.6259019,0.21242863,0.5637911,0.84869075,802.23444,778.46155,790.14655,797.3993,
1.1085074,0.29711562,0.41992676,0.9987081,0.6259019,0.21242863,0.5637911,0.84869075,803.8461,781.28204,785.7143,792.5641,
1.1085074,0.29711562,0.41992676,0.9987081,0.6259019,0.21242863,0.5637911,0.84869075,805.05493,780.87915,778.86444,790.14655,
1.1085074,0.29711562,0.41992676,0.9987081,0.6259019,0.21242863,0.5637911,0.84869075,801.4286,778.46155,783.2967,791.3553,
1.1085074,0.29711562,0.41992676,0.9987081,0.6259019,0.21242863,0.5637911,0.84869075,802.23444,776.04395,790.9524,783.69965,
1.1085074,0.29711562,0.41992676,0.9987081,0.6259019,0.21242863,0.5637911,0.84869075,808.68134,778.0586,792.96704,786.52014,
1.1085074,0.29711562,0.41992676,0.9987081,0.6259019,0.21242863,0.5637911,0.84869075,801.8315,774.0293,783.2967,789.34064,
1.1085074,0.29711562,0.41992676,0.9987081,0.6259019,0.21242863,0.5637911,0.84869075,797.8022,767.1795,778.86444,788.93774,
1.1085074,0.29711562,0.41992676,0.9987081,0.6259019,0.21242863,0.5637911,0.84869075,800.6227,775.64105,786.9231,793.36993,
1.1085074,0.29711562,0.41992676,0.9987081,0.6259019,0.21242863,0.5637911,0.84869075,799.41394,779.2674,790.54944,791.75824,
1.1085074,0.29711562,0.41992676,0.9987081,0.6259019,0.21242863,0.5637911,0.84869075,799.41394,774.0293,787326,789.34064,
1.1085074,0.29711562,0.41992676,0.9987081,0.6259019,0.21242863,0.5637911,0.84869075,799011,773.6264,783.69965,790.9524,
1.1085074,0.29711562,0.41992676,0.9987081,0.6259019,0.21242863,0.5637911,0.84869075,794.9817,776.8498,783.69965,789.34064,
1.1085074,0.29711562,0.41992676,0.9987081,0.6259019,0.21242863,0.5637911,0.84869075,787.72894,776.8498,783.2967,781.28204,
1.1085074,0.29711562,0.41992676,0.9987081,0.6259019,0.21242863,0.5637911,0.84869075,784.5055,775.64105,790.14655,786.9231,
1.1085074,0.29711562,0.41992676,0.9987081,0.6259019,0.21242863,0.5637911,0.84869075,779.2674,775.64105,793.36993,788.93774,
1.1085074,0.29711562,0.41992676,0.9987081,0.6259019,0.21242863,0.5637911,0.84869075,772.01465,772.4176,786.1172,783.2967,
1.1085074,0.29711562,0.41992676,0.9987081,0.6259019,0.21242863,0.5637911,0.84869075,770.0,777.6557,782.8938,784.90845,
1.1085074,0.29711562,0.41992676,0.9987081,0.6259019,0.21242863,0.5637911,0.84869075,775.2381,782.8938,791.3553,784.10254,
1.1085074,0.28871897,0.42040938,0.9987081,0.6665972,0.21445192,0.5409722,0.88693637,776.04395,783.69965,792.96704,777.6557,
1.1085074,0.28871897,0.42040938,0.9987081,0.6665972,0.21445192,0.5409722,0.88693637,772.4176,782.49084,785.31134,775.2381,
1.1085074,0.28871897,0.42040938,0.9987081,0.6665972,0.21445192,0.5409722,0.88693637,778.0586,779.67035,785.31134,780.4762,
1.1085074,0.28871897,0.42040938,0.9987081,0.6665972,0.21445192,0.5409722,0.88693637,780.4762,786.52014,788.5348,781.28204,
1.1085074,0.28871897,0.42040938,0.9987081,0.6665972,0.21445192,0.5409722,0.88693637,775.64105,785.31134,788.93774,779.2674,
1.1085074,0.28871897,0.42040938,0.9987081,0.6665972,0.21445192,0.5409722,0.88693637,767.5824,784.10254,784.90845,767.1795,
1.1085074,0.28871897,0.42040938,0.9987081,0.6665972,0.21445192,0.5409722,0.88693637,770.40295,784.5055,779.2674,757.50916,
1.1085074,0.28871897,0.42040938,0.9987081,0.6665972,0.21445192,0.5409722,0.88693637,777.6557,783.69965,778.0586,768.3883,
1.1085074,0.28871897,0.42040938,0.9987081,0.6665972,0.21445192,0.5409722,0.88693637,778.86444,783.69965,779.67035,773.22345,
1.1085074,0.28871897,0.42040938,0.9987081,0.6665972,0.21445192,0.5409722,0.88693637,788.1319,786.52014,783.69965,784.5055,
1.1085074,0.28871897,0.42040938,0.9987081,0.6665972,0.21445192,0.5409722,0.88693637,788.1319,790.14655,780.4762,781.28204,
1.1085074,0.28871897,0.42040938,0.9987081,0.6665972,0.21445192,0.5409722,0.88693637,790.14655,790.54944,776.4469,780.07324,
1.1085074,0.28871897,0.42040938,0.9987081,0.6665972,0.21445192,0.5409722,0.88693637,803.44324,791.75824,773.22345,792.5641,
1.1085074,0.28871897,0.42040938,0.9987081,0.6665972,0.21445192,0.5409722,0.88693637,813.5165,792.5641,776.4469,797.8022,
1.1085074,0.28871897,0.42040938,0.9987081,0.6665972,0.21445192,0.5409722,0.88693637,811.50183,790.54944,779.2674,805.4579,
1.1085074,0.28871897,0.42040938,0.9987081,0.6665972,0.21445192,0.5409722,0.88693637,803.0403,789.34064,779.67035,802.6374,
1.1085074,0.28871897,0.42040938,0.9987081,0.6665972,0.21445192,0.5409722,0.88693637,805.8608,788.1319,788.93774,803.8461,
1.1085074,0.28871897,0.42040938,0.9987081,0.6665972,0.21445192,0.5409722,0.88693637,809.4872,784.90845,793.7729,809.89014,
1.1085074,0.28871897,0.42040938,0.9987081,0.6665972,0.21445192,0.5409722,0.88693637,807.47253,783.2967,794.9817,805.05493,
1.1085074,0.28871897,0.42040938,0.9987081,0.6665972,0.21445192,0.5409722,0.88693637,813.1135,789.7436,794.9817,810696,
1.1085074,0.28871897,0.42040938,0.9987081,0.6665972,0.21445192,0.5409722,0.88693637,818.3516,792.5641,789.34064,816.7399,
1.1085074,0.28871897,0.42040938,0.9987081,0.6665972,0.21445192,0.5409722,0.88693637,832.8571,790.14655,790.14655,820.7692,
1.1085074,0.28871897,0.42040938,0.9987081,0.6665972,0.21445192,0.5409722,0.88693637,839707,786.1172,789.7436,822.7839,
1.1085074,0.28871897,0.42040938,0.9987081,0.6665972,0.21445192,0.5409722,0.88693637,834.87177,784.10254,789.34064,821.5751,
1.1085074,0.28871897,0.42040938,0.9987081,0.6665972,0.21445192,0.5409722,0.88693637,831.2454,787.72894,793.36993,824.7985,
1.1085074,0.28871897,0.42040938,0.9987081,0.6665972,0.21445192,0.5409722,0.88693637,830.4396,792.5641,797.8022,823.1868,
1.1085074,0.27817476,0.41027808,0.9987081,0.6665972,0.20867957,0.51912653,0.92611814,838.49817,790.54944,798.20514,820.3663,
1.1085074,0.27817476,0.41027808,0.9987081,0.6665972,0.20867957,0.51912653,0.92611814,838.49817,788.93774,790.9524,815.5311,
1.1085074,0.27817476,0.41027808,0.9987081,0.6665972,0.20867957,0.51912653,0.92611814,838.9011,794.17584,789.34064,819.9634,
1.1085074,0.27817476,0.41027808,0.9987081,0.6665972,0.20867957,0.51912653,0.92611814,846.1539,793.7729,793.7729,829.6337,
1.1085074,0.27817476,0.41027808,0.9987081,0.6665972,0.20867957,0.51912653,0.92611814,828.8278,788.93774,794.17584,816.7399,
1.1085074,0.27817476,0.41027808,0.9987081,0.6665972,0.20867957,0.51912653,0.92611814,807.47253,782.49084,792.96704,807.0696,
1.1085074,0.27817476,0.41027808,0.9987081,0.6665972,0.20867957,0.51912653,0.92611814,803.8461,779.2674,794.57874,808.68134,
1.1085074,0.27817476,0.41027808,0.9987081,0.6665972,0.20867957,0.51912653,0.92611814,801.02563,779.2674,794.9817,800.6227,
1.1085074,0.27817476,0.41027808,0.9987081,0.6665972,0.20867957,0.51912653,0.92611814,809.0842,780.4762,790.9524,804.2491,
1.1085074,0.27817476,0.41027808,0.9987081,0.6665972,0.20867957,0.51912653,0.92611814,820.7692,786.52014,783.2967,813.5165,
1.1085074,0.27817476,0.41027808,0.9987081,0.6665972,0.20867957,0.51912653,0.92611814,825.6044,790.14655,781685,813.91943,
1.1085074,0.27817476,0.41027808,0.9987081,0.6665972,0.20867957,0.51912653,0.92611814,824.7985,789.34064,785.31134,815.12823,
1.1085074,0.27817476,0.41027808,0.9987081,0.6665972,0.20867957,0.51912653,0.92611814,820.7692,785.7143,788.1319,826.4103,
1.1085074,0.27817476,0.41027808,0.9987081,0.6665972,0.20867957,0.51912653,0.92611814,823.1868,780.07324,786.9231,833663,
1.1085074,0.27817476,0.41027808,0.9987081,0.6665972,0.20867957,0.51912653,0.92611814,826.8132,782.0879,786.9231,834.4689,
1.1085074,0.27817476,0.41027808,0.9987081,0.6665972,0.20867957,0.51912653,0.92611814,827.2161,780.87915,790.14655,836.08057,
1.1085074,0.27817476,0.41027808,0.9987081,0.6665972,0.20867957,0.51912653,0.92611814,829.6337,772.8205,788.1319,837.6923,
1.1085074,0.27817476,0.41027808,0.9987081,0.6665972,0.20867957,0.51912653,0.92611814,827619,769.59705,782.8938,836.4835,
1.1085074,0.27817476,0.41027808,0.9987081,0.6665972,0.20867957,0.51912653,0.92611814,827619,768.3883,776.8498,831.6484,
1.1085074,0.27817476,0.41027808,0.9987081,0.6665972,0.20867957,0.51912653,0.92611814,826.8132,770.80585,780.4762,834.0659,
1.1085074,0.27817476,0.41027808,0.9987081,0.6665972,0.20867957,0.51912653,0.92611814,823.1868,772.01465,780.4762,836.08057,
1.1085074,0.27817476,0.41027808,0.9987081,0.6665972,0.20867957,0.51912653,0.92611814,818.7546,765.16486,776.4469,837.28937,
1.1085074,0.27817476,0.41027808,0.9987081,0.6665972,0.20867957,0.51912653,0.92611814,803.44324,768.3883,782.49084,827619,
1.1085074,0.27817476,0.41027808,0.9987081,0.6665972,0.20867957,0.51912653,0.92611814,801.4286,779.67035,788.1319,815.12823,
1.1085074,0.27817476,0.41027808,0.9987081,0.6665972,0.20867957,0.51912653,0.92611814,815.5311,778.86444,783.69965,823.1868,
1.1085074,0.27817476,0.41027808,0.9987081,0.6665972,0.20867957,0.51912653,0.92611814,819.5604,782.0879,779.2674,826.8132,
1.1085074,0.27817476,0.4042002,0.9987081,0.6665972,0.19147547,0.49565652,0.9615671,814.7253,785.7143,779.2674,813.91943,
1.1085074,0.27817476,0.4042002,0.9987081,0.6665972,0.19147547,0.49565652,0.9615671,813.91943,784.10254,780.87915,810293,
1.1085074,0.27817476,0.4042002,0.9987081,0.6665972,0.19147547,0.49565652,0.9615671,804.65204,783.69965,782.8938,809.0842,
1.1085074,0.27817476,0.4042002,0.9987081,0.6665972,0.19147547,0.49565652,0.9615671,800.2198,782.49084,785.31134,805.4579,
1.1085074,0.27817476,0.4042002,0.9987081,0.6665972,0.19147547,0.49565652,0.9615671,791.3553,778.0586,788.93774,801.8315,
1.1085074,0.27817476,0.4042002,0.9987081,0.6665972,0.19147547,0.49565652,0.9615671,770.40295,770.80585,788.1319,792.96704,
1.1085074,0.27817476,0.4042002,0.9987081,0.6665972,0.19147547,0.49565652,0.9615671,767.1795,768.3883,792.5641,791.3553,
1.1085074,0.27817476,0.4042002,0.9987081,0.6665972,0.19147547,0.49565652,0.9615671,771.6117,767.98535,794.9817,792.5641,
1.1085074,0.27817476,0.4042002,0.9987081,0.6665972,0.19147547,0.49565652,0.9615671,767.98535,765.56775,787.72894,791.75824,
1.1085074,0.27817476,0.4042002,0.9987081,0.6665972,0.19147547,0.49565652,0.9615671,774.83514,764.35895,782.49084,790.54944,
1.1085074,0.27817476,0.4042002,0.9987081,0.6665972,0.19147547,0.49565652,0.9615671,784.5055,766.77655,781.28204,794.9817,
1.1085074,0.27817476,0.4042002,0.9987081,0.6665972,0.19147547,0.49565652,0.9615671,786.9231,767.1795,784.10254,800.2198,
1.1085074,0.27817476,0.4042002,0.9987081,0.6665972,0.19147547,0.49565652,0.9615671,788.1319,766.3736,784.90845,798.20514,
1.1085074,0.27817476,0.4042002,0.9987081,0.6665972,0.19147547,0.49565652,0.9615671,791.3553,774.43225,786.1172,804.65204,
1.1085074,0.27817476,0.4042002,0.9987081,0.6665972,0.19147547,0.49565652,0.9615671,791.3553,772.4176,784.5055,806.26373,
1.1085074,0.27817476,0.4042002,0.9987081,0.6665972,0.19147547,0.49565652,0.9615671,785.7143,767.1795,779.67035,803.44324,
1.1085074,0.27817476,0.4042002,0.9987081,0.6665972,0.19147547,0.49565652,0.9615671,789.7436,765.56775,781.28204,818.3516,
1.1085074,0.27817476,0.4042002,0.9987081,0.6665972,0.19147547,0.49565652,0.9615671,801.8315,767.1795,787.72894,821.1722,
1.1085074,0.27817476,0.4042002,0.9987081,0.6665972,0.19147547,0.49565652,0.9615671,801.4286,770.80585,786.1172,809.4872,
1.1085074,0.27817476,0.4042002,0.9987081,0.6665972,0.19147547,0.49565652,0.9615671,813.1135,779.67035,784.10254,817.1429,
1.1085074,0.27817476,0.4042002,0.9987081,0.6665972,0.19147547,0.49565652,0.9615671,830.0366,782.8938,785.31134,822.7839,
1.1085074,0.27817476,0.4042002,0.9987081,0.6665972,0.19147547,0.49565652,0.9615671,826.4103,774.0293,782.49084,820.7692,
1.1085074,0.27817476,0.4042002,0.9987081,0.6665972,0.19147547,0.49565652,0.9615671,815.9341,775.2381,786.1172,819.5604,
1.1085074,0.27817476,0.4042002,0.9987081,0.6665972,0.19147547,0.49565652,0.9615671,808.68134,771.2088,786.52014,813.1135,
1.1085074,0.27817476,0.4042002,0.9987081,0.6665972,0.19147547,0.49565652,0.9615671,804.65204,767.5824,779.67035,803.0403,
1.1085074,0.27817476,0.4042002,0.9987081,0.6665972,0.19147547,0.49565652,0.9615671,803.8461,770.40295,781.28204,799.81683,
1.1085074,0.2761182,0.40551814,0.9987081,0.6665972,0.16438414,0.46591493,0.9840849,808.2784,772.4176,784.10254,805.4579,
1.1085074,0.2761182,0.40551814,0.9987081,0.6665972,0.16438414,0.46591493,0.9840849,805.4579,772.4176,784.5055,807.0696,
1.1085074,0.2761182,0.40551814,0.9987081,0.6665972,0.16438414,0.46591493,0.9840849,794.57874,769.59705,784.5055,807.8755,
1.1085074,0.2761182,0.40551814,0.9987081,0.6665972,0.16438414,0.46591493,0.9840849,792.1612,767.5824,790.9524,814.3223,
1.1085074,0.2761182,0.40551814,0.9987081,0.6665972,0.16438414,0.46591493,0.9840849,788.5348,767.5824,790.9524,804.2491,
1.1085074,0.2761182,0.40551814,0.9987081,0.6665972,0.16438414,0.46591493,0.9840849,792.96704,770.40295,791.3553,796.1905,
1.1085074,0.2761182,0.40551814,0.9987081,0.6665972,0.16438414,0.46591493,0.9840849,796.99634,772.8205,796.5934,800.6227,
1.1085074,0.2761182,0.40551814,0.9987081,0.6665972,0.16438414,0.46591493,0.9840849,796.5934,772.4176,799.41394,796.99634,
1.1085074,0.2761182,0.40551814,0.9987081,0.6665972,0.16438414,0.46591493,0.9840849,792.5641,770.80585,797.3993,789.34064,
1.1085074,0.2761182,0.40551814,0.9987081,0.6665972,0.16438414,0.46591493,0.9840849,783.69965,771.2088,792.5641,783.69965,
1.1085074,0.2761182,0.40551814,0.9987081,0.6665972,0.16438414,0.46591493,0.9840849,780.87915,772.4176,790.14655,781685,
1.1085074,0.2761182,0.40551814,0.9987081,0.6665972,0.16438414,0.46591493,0.9840849,780.4762,769.59705,791.3553,787.72894,
1.1085074,0.2761182,0.40551814,0.9987081,0.6665972,0.16438414,0.46591493,0.9840849,770.80585,761.9414,792.5641,792.96704,
1.1085074,0.2761182,0.40551814,0.9987081,0.6665972,0.16438414,0.46591493,0.9840849,764.35895,757.9121,789.7436,783.2967,
1.1085074,0.2761182,0.40551814,0.9987081,0.6665972,0.16438414,0.46591493,0.9840849,774.0293,755.89746,786.52014,779.2674,
1.1085074,0.2761182,0.40551814,0.9987081,0.6665972,0.16438414,0.46591493,0.9840849,775.64105,758315,783.69965,779.2674,
1.1085074,0.2761182,0.40551814,0.9987081,0.6665972,0.16438414,0.46591493,0.9840849,770.40295,761.9414,782.0879,776.8498,
1.1085074,0.2761182,0.40551814,0.9987081,0.6665972,0.16438414,0.46591493,0.9840849,768.3883,758.71796,784.5055,777.6557,
1.1085074,0.2761182,0.40551814,0.9987081,0.6665972,0.16438414,0.46591493,0.9840849,769.59705,758315,784.5055,784.5055,
1.1085074,0.2761182,0.40551814,0.9987081,0.6665972,0.16438414,0.46591493,0.9840849,767.5824,764.35895,782.0879,780.4762,
1.1085074,0.2761182,0.40551814,0.9987081,0.6665972,0.16438414,0.46591493,0.9840849,767.98535,762.74725,783.69965,772.8205,
1.1085074,0.2761182,0.40551814,0.9987081,0.6665972,0.16438414,0.46591493,0.9840849,780.87915,760.32965,789.7436,784.5055,
1.1085074,0.2761182,0.40551814,0.9987081,0.6665972,0.16438414,0.46591493,0.9840849,790.9524,767.1795,789.7436,789.34064,
1.1085074,0.2761182,0.40551814,0.9987081,0.6665972,0.16438414,0.46591493,0.9840849,790.9524,770.40295,785.7143,793.36993,
1.1085074,0.2761182,0.40551814,0.9987081,0.6665972,0.16438414,0.46591493,0.9840849,796.1905,769.59705,788.93774,805.4579,
1.1085074,0.2761182,0.40551814,0.9987081,0.6665972,0.16438414,0.46591493,0.9840849,805.05493,773.22345,784.90845,807.47253,
1.1085074,0.26662672,0.41315076,0.9987081,0.6665972,0.13638161,0.42744175,0.9840849,804.65204,774.0293,781.28204,807.47253,
1.1085074,0.26662672,0.41315076,0.9987081,0.6665972,0.13638161,0.42744175,0.9840849,804.65204,772.01465,786.9231,809.4872,
1.1085074,0.26662672,0.41315076,0.9987081,0.6665972,0.13638161,0.42744175,0.9840849,809.0842,773.22345,785.7143,815.5311,
1.1085074,0.26662672,0.41315076,0.9987081,0.6665972,0.13638161,0.42744175,0.9840849,821978,776.4469,784.90845,823.5897,
1.1085074,0.26662672,0.41315076,0.9987081,0.6665972,0.13638161,0.42744175,0.9840849,829.2308,779.67035,783.69965,812.71063,
1.1085074,0.26662672,0.41315076,0.9987081,0.6665972,0.13638161,0.42744175,0.9840849,826.0073,780.87915,778.46155,806.26373,
1.1085074,0.26662672,0.41315076,0.9987081,0.6665972,0.13638161,0.42744175,0.9840849,822381,777.25275,780.87915,809.89014,
1.1085074,0.26662672,0.41315076,0.9987081,0.6665972,0.13638161,0.42744175,0.9840849,812.71063,771.2088,783.69965,806.6667,
1.1085074,0.26662672,0.41315076,0.9987081,0.6665972,0.13638161,0.42744175,0.9840849,806.6667,768.7912,784.10254,801.8315,
1.1085074,0.26662672,0.41315076,0.9987081,0.6665972,0.13638161,0.42744175,0.9840849,814.7253,775.2381,786.52014,803.44324,
1.1085074,0.26662672,0.41315076,0.9987081,0.6665972,0.13638161,0.42744175,0.9840849,819.9634,777.6557,781685,809.0842,
1.1085074,0.26662672,0.41315076,0.9987081,0.6665972,0.13638161,0.42744175,0.9840849,819.5604,774.43225,771.2088,803.8461,
1.1085074,0.26662672,0.41315076,0.9987081,0.6665972,0.13638161,0.42744175,0.9840849,819.9634,774.83514,771.2088,801.8315,
1.1085074,0.26662672,0.41315076,0.9987081,0.6665972,0.13638161,0.42744175,0.9840849,807.8755,773.22345,778.86444,803.0403,
1.1085074,0.26662672,0.41315076,0.9987081,0.6665972,0.13638161,0.42744175,0.9840849,798.20514,768.7912,778.0586,802.6374,
1.1085074,0.26662672,0.41315076,0.9987081,0.6665972,0.13638161,0.42744175,0.9840849,804.2491,773.22345,778.86444,818.7546,
1.1085074,0.26662672,0.41315076,0.9987081,0.6665972,0.13638161,0.42744175,0.9840849,807.0696,778.46155,784.5055,819.9634,
1.1085074,0.26662672,0.41315076,0.9987081,0.6665972,0.13638161,0.42744175,0.9840849,807.47253,774.83514,780.07324,809.4872,
1.1085074,0.26662672,0.41315076,0.9987081,0.6665972,0.13638161,0.42744175,0.9840849,810293,776.04395,777.6557,808.68134,
1.1085074,0.26662672,0.41315076,0.9987081,0.6665972,0.13638161,0.42744175,0.9840849,801.02563,776.04395,778.0586,798.20514,
1.1085074,0.26662672,0.41315076,0.9987081,0.6665972,0.13638161,0.42744175,0.9840849,798.60803,773.22345,779.67035,798.20514,
1.1085074,0.26662672,0.41315076,0.9987081,0.6665972,0.13638161,0.42744175,0.9840849,805.05493,775.64105,784.10254,805.05493,
1.1085074,0.26662672,0.41315076,0.9987081,0.6665972,0.13638161,0.42744175,0.9840849,804.65204,775.64105,783.2967,807.0696,
1.1085074,0.26662672,0.41315076,0.9987081,0.6665972,0.13638161,0.42744175,0.9840849,805.4579,778.86444,783.69965,811.50183,
1.1085074,0.26662672,0.41315076,0.9987081,0.6665972,0.13638161,0.42744175,0.9840849,807.0696,778.46155,785.31134,808.2784,
1.1085074,0.26662672,0.41315076,0.9987081,0.6665972,0.13638161,0.42744175,0.9840849,807.0696,774.0293,783.69965,804.2491,
1.0993563,0.22631122,0.4244496,0.9987081,0.6398222,0.12179702,0.38184625,0.9840849,806.6667,773.6264,781.28204,805.05493,
1.0993563,0.22631122,0.4244496,0.9987081,0.6398222,0.12179702,0.38184625,0.9840849,807.47253,772.8205,783.2967,811.9048,
1.0993563,0.22631122,0.4244496,0.9987081,0.6398222,0.12179702,0.38184625,0.9840849,805.8608,773.6264,783.69965,814.7253,
1.0993563,0.22631122,0.4244496,0.9987081,0.6398222,0.12179702,0.38184625,0.9840849,799.81683,777.6557,785.31134,805.4579,
1.0993563,0.22631122,0.4244496,0.9987081,0.6398222,0.12179702,0.38184625,0.9840849,803.0403,784.10254,786.9231,805.05493,
1.0993563,0.22631122,0.4244496,0.9987081,0.6398222,0.12179702,0.38184625,0.9840849,809.4872,784.10254,782.0879,807.8755,
1.0993563,0.22631122,0.4244496,0.9987081,0.6398222,0.12179702,0.38184625,0.9840849,803.8461,781685,782.0879,805.05493,
1.0993563,0.22631122,0.4244496,0.9987081,0.6398222,0.12179702,0.38184625,0.9840849,803.8461,781685,783.2967,804.2491,
1.0993563,0.22631122,0.4244496,0.9987081,0.6398222,0.12179702,0.38184625,0.9840849,802.6374,781.28204,776.8498,799011,
1.0993563,0.22631122,0.4244496,0.9987081,0.6398222,0.12179702,0.38184625,0.9840849,796.1905,777.6557,770.80585,790.9524,
1.0993563,0.22631122,0.4244496,0.9987081,0.6398222,0.12179702,0.38184625,0.9840849,790.9524,776.8498,774.43225,792.5641,
1.0993563,0.22631122,0.4244496,0.9987081,0.6398222,0.12179702,0.38184625,0.9840849,792.96704,778.0586,781685,796.5934,
1.0993563,0.22631122,0.4244496,0.9987081,0.6398222,0.12179702,0.38184625,0.9840849,797.3993,778.0586,781.28204,802.6374,
1.0993563,0.22631122,0.4244496,0.9987081,0.6398222,0.12179702,0.38184625,0.9840849,801.4286,780.4762,774.83514,812.3077,
1.0993563,0.22631122,0.4244496,0.9987081,0.6398222,0.12179702,0.38184625,0.9840849,807.8755,782.49084,778.46155,818.3516,
1.0993563,0.22631122,0.4244496,0.9987081,0.6398222,0.12179702,0.38184625,0.9840849,807.47253,784.10254,788.5348,817.1429,
1.0993563,0.22631122,0.4244496,0.9987081,0.6398222,0.12179702,0.38184625,0.9840849,816337,787.72894,789.34064,818.7546,
1.0993563,0.22631122,0.4244496,0.9987081,0.6398222,0.12179702,0.38184625,0.9840849,830.0366,786.9231,788.1319,826.0073,
1.0993563,0.22631122,0.4244496,0.9987081,0.6398222,0.12179702,0.38184625,0.9840849,831.6484,789.7436,790.14655,830.84247,
1.0993563,0.22631122,0.4244496,0.9987081,0.6398222,0.12179702,0.38184625,0.9840849,839707,794.57874,788.93774,834.0659,
1.0993563,0.22631122,0.4244496,0.9987081,0.6398222,0.12179702,0.38184625,0.9840849,854.61536,792.1612,786.9231,844.94507,
1.0993563,0.22631122,0.4244496,0.9987081,0.6398222,0.12179702,0.38184625,0.9840849,861.06226,788.93774,791.75824,848.5714,
1.0993563,0.22631122,0.4244496,0.9987081,0.6398222,0.12179702,0.38184625,0.9840849,865.89746,788.93774,794.17584,856.2271,
1.0993563,0.22631122,0.4244496,0.9987081,0.6398222,0.12179702,0.38184625,0.9840849,864.68866,788.1319,789.34064,859.45056,
1.0993563,0.22631122,0.4244496,0.9987081,0.6398222,0.12179702,0.38184625,0.9840849,859.0476,784.90845,790.9524,862674,
1.0993563,0.22631122,0.4244496,0.9987081,0.6398222,0.12179702,0.38184625,0.9840849,864.68866,781685,794.9817,868.71796,
1.0499032,0.20258944,0.43505904,0.9987081,0.6085637,0.12908314,0.3322432,0.9840849,865.09155,781685,794.57874,857.8388,
1.0499032,0.20258944,0.43505904,0.9987081,0.6085637,0.12908314,0.3322432,0.9840849,860.65936,785.7143,789.34064,857.03296,
1.0499032,0.20258944,0.43505904,0.9987081,0.6085637,0.12908314,0.3322432,0.9840849,855.0183,784.5055,782.49084,855.42126,
1.0499032,0.20258944,0.43505904,0.9987081,0.6085637,0.12908314,0.3322432,0.9840849,838.49817,779.67035,775.64105,842.52747,
1.0499032,0.20258944,0.43505904,0.9987081,0.6085637,0.12908314,0.3322432,0.9840849,838.49817,780.4762,776.4469,834.87177,
1.0499032,0.20258944,0.43505904,0.9987081,0.6085637,0.12908314,0.3322432,0.9840849,848.5714,780.07324,786.1172,839304,
1.0499032,0.20258944,0.43505904,0.9987081,0.6085637,0.12908314,0.3322432,0.9840849,842.1245,776.4469,791.3553,846.1539,
1.0499032,0.20258944,0.43505904,0.9987081,0.6085637,0.12908314,0.3322432,0.9840849,836.8865,774.83514,789.7436,841.31866,
1.0499032,0.20258944,0.43505904,0.9987081,0.6085637,0.12908314,0.3322432,0.9840849,836.8865,775.2381,782.49084,834.0659,
1.0499032,0.20258944,0.43505904,0.9987081,0.6085637,0.12908314,0.3322432,0.9840849,832.8571,774.83514,777.25275,835.2747,
1.0499032,0.20258944,0.43505904,0.9987081,0.6085637,0.12908314,0.3322432,0.9840849,827619,770.40295,777.25275,835.2747,
1.0499032,0.20258944,0.43505904,0.9987081,0.6085637,0.12908314,0.3322432,0.9840849,831.2454,771.6117,776.04395,838.0952,
1.0499032,0.20258944,0.43505904,0.9987081,0.6085637,0.12908314,0.3322432,0.9840849,828.8278,773.22345,777.25275,837.6923,
1.0499032,0.20258944,0.43505904,0.9987081,0.6085637,0.12908314,0.3322432,0.9840849,826.0073,770.80585,779.67035,836.8865,
1.0499032,0.20258944,0.43505904,0.9987081,0.6085637,0.12908314,0.3322432,0.9840849,833663,772.4176,782.0879,842.1245,
1.0499032,0.20258944,0.43505904,0.9987081,0.6085637,0.12908314,0.3322432,0.9840849,837.28937,774.43225,781.28204,840.9158,
1.0499032,0.20258944,0.43505904,0.9987081,0.6085637,0.12908314,0.3322432,0.9840849,836.4835,774.43225,779.2674,840.5128,
1.0499032,0.20258944,0.43505904,0.9987081,0.6085637,0.12908314,0.3322432,0.9840849,836.8865,769.59705,774.83514,842.52747,
1.0499032,0.20258944,0.43505904,0.9987081,0.6085637,0.12908314,0.3322432,0.9840849,836.08057,768.7912,773.22345,839707,
1.0499032,0.20258944,0.43505904,0.9987081,0.6085637,0.12908314,0.3322432,0.9840849,832.0513,770.40295,776.8498,837.6923,
1.0499032,0.20258944,0.43505904,0.9987081,0.6085637,0.12908314,0.3322432,0.9840849,834.0659,772.4176,776.4469,837.6923,
1.0499032,0.20258944,0.43505904,0.9987081,0.6085637,0.12908314,0.3322432,0.9840849,828.4249,772.4176,781685,839304,
1.0499032,0.20258944,0.43505904,0.9987081,0.6085637,0.12908314,0.3322432,0.9840849,832.0513,772.8205,788.93774,843.3333,
1.0499032,0.20258944,0.43505904,0.9987081,0.6085637,0.12908314,0.3322432,0.9840849,834.0659,774.43225,786.9231,836.08057,
1.0499032,0.20258944,0.43505904,0.9987081,0.6085637,0.12908314,0.3322432,0.9840849,823.1868,780.4762,794.17584,834.0659,
1.0499032,0.20258944,0.43505904,0.9987081,0.6085637,0.12908314,0.3322432,0.9840849,822381,783.2967,796.1905,833663,
1.0499032,0.21042503,0.3990575,0.9987081,0.6085637,0.15154071,0.27906233,0.9840849,820.7692,780.87915,789.7436,826.4103,
1.0499032,0.21042503,0.3990575,0.9987081,0.6085637,0.15154071,0.27906233,0.9840849,812.3077,778.0586,792.1612,827619,
1.0499032,0.21042503,0.3990575,0.9987081,0.6085637,0.15154071,0.27906233,0.9840849,816.7399,775.64105,787326,826.8132,
1.0499032,0.21042503,0.3990575,0.9987081,0.6085637,0.15154071,0.27906233,0.9840849,821978,779.2674,783.69965,826.0073,
1.0499032,0.21042503,0.3990575,0.9987081,0.6085637,0.15154071,0.27906233,0.9840849,815.5311,781.28204,785.7143,822381,
1.0499032,0.21042503,0.3990575,0.9987081,0.6085637,0.15154071,0.27906233,0.9840849,815.5311,783.2967,788.93774,822.7839,
1.0499032,0.21042503,0.3990575,0.9987081,0.6085637,0.15154071,0.27906233,0.9840849,817.1429,787326,795.78754,827.2161,
1.0499032,0.21042503,0.3990575,0.9987081,0.6085637,0.15154071,0.27906233,0.9840849,813.1135,786.1172,792.5641,817.5458,
1.0499032,0.21042503,0.3990575,0.9987081,0.6085637,0.15154071,0.27906233,0.9840849,805.05493,783.69965,791.3553,819.15753,
1.0499032,0.21042503,0.3990575,0.9987081,0.6085637,0.15154071,0.27906233,0.9840849,801.02563,783.69965,794.17584,822381,
1.0499032,0.21042503,0.3990575,0.9987081,0.6085637,0.15154071,0.27906233,0.9840849,797.3993,781685,791.75824,816.7399,
1.0499032,0.21042503,0.3990575,0.9987081,0.6085637,0.15154071,0.27906233,0.9840849,801.8315,784.10254,794.17584,825.2015,
1.0499032,0.21042503,0.3990575,0.9987081,0.6085637,0.15154071,0.27906233,0.9840849,811.50183,784.90845,795.38464,828022,
1.0499032,0.21042503,0.3990575,0.9987081,0.6085637,0.15154071,0.27906233,0.9840849,809.89014,788.1319,797.3993,819.15753,
1.0499032,0.21042503,0.3990575,0.9987081,0.6085637,0.15154071,0.27906233,0.9840849,807.8755,789.7436,795.78754,815.9341,
1.0499032,0.21042503,0.3990575,0.9987081,0.6085637,0.15154071,0.27906233,0.9840849,806.26373,786.9231,796.5934,816337,
1.0499032,0.21042503,0.3990575,0.9987081,0.6085637,0.15154071,0.27906233,0.9840849,804.65204,785.31134,794.17584,820.3663,
1.0499032,0.21042503,0.3990575,0.9987081,0.6085637,0.15154071,0.27906233,0.9840849,804.65204,784.10254,792.1612,812.71063,
1.0499032,0.21042503,0.3990575,0.9987081,0.6085637,0.15154071,0.27906233,0.9840849,804.2491,786.9231,794.9817,809.4872,
1.0499032,0.21042503,0.3990575,0.9987081,0.6085637,0.15154071,0.27906233,0.9840849,802.6374,786.9231,796.1905,818.3516,
1.0499032,0.21042503,0.3990575,0.9987081,0.6085637,0.15154071,0.27906233,0.9840849,800.2198,783.2967,791.3553,809.0842,
1.0499032,0.21042503,0.3990575,0.9987081,0.6085637,0.15154071,0.27906233,0.9840849,801.02563,781.28204,779.2674,803.0403,
1.0499032,0.21042503,0.3990575,0.9987081,0.6085637,0.15154071,0.27906233,0.9840849,803.44324,782.8938,782.0879,814.3223,
1.0499032,0.21042503,0.3990575,0.9987081,0.6085637,0.15154071,0.27906233,0.9840849,803.44324,784.5055,791.3553,811.9048,
1.0499032,0.21042503,0.3990575,0.9987081,0.6085637,0.15154071,0.27906233,0.9840849,802.23444,788.5348,789.7436,803.44324,
1.0499032,0.21042503,0.3990575,0.9987081,0.6085637,0.15154071,0.27906233,0.9840849,800.6227,791.3553,792.1612,808.68134,
1.0499032,0.21471998,0.3598459,0.9987081,0.6085637,0.17435826,0.22121286,0.9840849,803.8461,791.3553,795.38464,818.3516,
1.0499032,0.21471998,0.3598459,0.9987081,0.6085637,0.17435826,0.22121286,0.9840849,800.6227,789.7436,792.96704,815.5311,
1.0499032,0.21471998,0.3598459,0.9987081,0.6085637,0.17435826,0.22121286,0.9840849,794.9817,784.5055,792.1612,804.65204,
1.0499032,0.21471998,0.3598459,0.9987081,0.6085637,0.17435826,0.22121286,0.9840849,798.60803,784.10254,785.7143,799011,
1.0499032,0.21471998,0.3598459,0.9987081,0.6085637,0.17435826,0.22121286,0.9840849,794.9817,779.2674,776.8498,796.99634,
1.0499032,0.21471998,0.3598459,0.9987081,0.6085637,0.17435826,0.22121286,0.9840849,790.54944,776.4469,780.87915,797.8022,
1.0499032,0.21471998,0.3598459,0.9987081,0.6085637,0.17435826,0.22121286,0.9840849,797.8022,783.2967,785.7143,809.0842,
1.0499032,0.21471998,0.3598459,0.9987081,0.6085637,0.17435826,0.22121286,0.9840849,799.81683,785.31134,786.1172,811.0989,
1.0499032,0.21471998,0.3598459,0.9987081,0.6085637,0.17435826,0.22121286,0.9840849,796.99634,787.72894,785.31134,804.2491,
1.0499032,0.21471998,0.3598459,0.9987081,0.6085637,0.17435826,0.22121286,0.9840849,799.81683,788.1319,781.28204,799.41394,
1.0499032,0.21471998,0.3598459,0.9987081,0.6085637,0.17435826,0.22121286,0.9840849,802.6374,789.7436,782.0879,794.17584,
1.0499032,0.21471998,0.3598459,0.9987081,0.6085637,0.17435826,0.22121286,0.9840849,804.2491,790.9524,780.4762,799011,
1.0499032,0.21471998,0.3598459,0.9987081,0.6085637,0.17435826,0.22121286,0.9840849,806.26373,790.9524,780.87915,799011,
1.0499032,0.21471998,0.3598459,0.9987081,0.6085637,0.17435826,0.22121286,0.9840849,810696,791.3553,787.72894,796.5934,
1.0499032,0.21471998,0.3598459,0.9987081,0.6085637,0.17435826,0.22121286,0.9840849,806.6667,786.52014,789.34064,796.99634,
1.0499032,0.21471998,0.3598459,0.9987081,0.6085637,0.17435826,0.22121286,0.9840849,806.6667,788.1319,783.2967,796.1905,
1.0499032,0.21471998,0.3598459,0.9987081,0.6085637,0.17435826,0.22121286,0.9840849,807.8755,788.93774,774.0293,797.8022,
1.0499032,0.21471998,0.3598459,0.9987081,0.6085637,0.17435826,0.22121286,0.9840849,804.65204,781.28204,768.7912,794.57874,
1.0499032,0.21471998,0.3598459,0.9987081,0.6085637,0.17435826,0.22121286,0.9840849,801.4286,776.8498,769.59705,792.5641,
1.0499032,0.21471998,0.3598459,0.9987081,0.6085637,0.17435826,0.22121286,0.9840849,803.8461,774.43225,772.01465,796.5934,
1.0499032,0.21471998,0.3598459,0.9987081,0.6085637,0.17435826,0.22121286,0.9840849,804.65204,778.0586,778.46155,802.23444,
1.0499032,0.21471998,0.3598459,0.9987081,0.6085637,0.17435826,0.22121286,0.9840849,799.81683,782.8938,778.86444,791.3553,
1.0499032,0.21471998,0.3598459,0.9987081,0.6085637,0.17435826,0.22121286,0.9840849,807.8755,785.31134,776.04395,791.3553,
1.0499032,0.21471998,0.3598459,0.9987081,0.6085637,0.17435826,0.22121286,0.9840849,819.9634,786.1172,778.86444,805.8608,
1.0499032,0.21471998,0.3598459,0.9987081,0.6085637,0.17435826,0.22121286,0.9840849,820.3663,786.1172,782.8938,807.47253,
1.0499032,0.21471998,0.3598459,0.9987081,0.6085637,0.17435826,0.22121286,0.9840849,814.3223,784.5055,782.8938,804.2491,
1.0499032,0.23022336,0.36056632,0.9987081,0.6085637,0.18857548,0.16143139,0.9840849,815.12823,784.10254,778.46155,812.71063,
1.0499032,0.23022336,0.36056632,0.9987081,0.6085637,0.18857548,0.16143139,0.9840849,817.5458,783.2967,775.2381,819.5604,
1.0499032,0.23022336,0.36056632,0.9987081,0.6085637,0.18857548,0.16143139,0.9840849,817.5458,783.69965,777.25275,809.89014,
1.0499032,0.23022336,0.36056632,0.9987081,0.6085637,0.18857548,0.16143139,0.9840849,812.3077,784.10254,780.4762,805.05493,
1.0499032,0.23022336,0.36056632,0.9987081,0.6085637,0.18857548,0.16143139,0.9840849,806.6667,779.2674,783.2967,799.41394,
1.0499032,0.23022336,0.36056632,0.9987081,0.6085637,0.18857548,0.16143139,0.9840849,808.68134,778.86444,784.10254,797.3993,
1.0499032,0.23022336,0.36056632,0.9987081,0.6085637,0.18857548,0.16143139,0.9840849,805.4579,781.28204,783.2967,796.99634,
1.0499032,0.23022336,0.36056632,0.9987081,0.6085637,0.18857548,0.16143139,0.9840849,799011,778.86444,779.2674,793.36993,
1.0499032,0.23022336,0.36056632,0.9987081,0.6085637,0.18857548,0.16143139,0.9840849,793.7729,776.04395,774.43225,791.75824,
1.0499032,0.23022336,0.36056632,0.9987081,0.6085637,0.18857548,0.16143139,0.9840849,791.75824,780.87915,777.25275,798.20514,
1.0499032,0.23022336,0.36056632,0.9987081,0.6085637,0.18857548,0.16143139,0.9840849,797.8022,787326,782.0879,807.47253,
1.0499032,0.23022336,0.36056632,0.9987081,0.6085637,0.18857548,0.16143139,0.9840849,794.57874,788.93774,783.2967,808.68134,
1.0499032,0.23022336,0.36056632,0.9987081,0.6085637,0.18857548,0.16143139,0.9840849,791.75824,786.9231,778.86444,805.05493,
1.0499032,0.23022336,0.36056632,0.9987081,0.6085637,0.18857548,0.16143139,0.9840849,789.7436,782.0879,779.2674,801.02563,
1.0499032,0.23022336,0.36056632,0.9987081,0.6085637,0.18857548,0.16143139,0.9840849,784.90845,780.4762,786.1172,799011,
1.0499032,0.23022336,0.36056632,0.9987081,0.6085637,0.18857548,0.16143139,0.9840849,786.52014,776.4469,784.10254,805.4579,
1.0499032,0.23022336,0.36056632,0.9987081,0.6085637,0.18857548,0.16143139,0.9840849,784.10254,772.8205,777.25275,807.8755,
1.0499032,0.23022336,0.36056632,0.9987081,0.6085637,0.18857548,0.16143139,0.9840849,774.43225,771.6117,775.64105,798.20514,
1.0499032,0.23022336,0.36056632,0.9987081,0.6085637,0.18857548,0.16143139,0.9840849,774.43225,769.59705,772.4176,792.5641,
1.0499032,0.23022336,0.36056632,0.9987081,0.6085637,0.18857548,0.16143139,0.9840849,780.87915,771.6117,770.80585,785.7143,
1.0499032,0.23022336,0.36056632,0.9987081,0.6085637,0.18857548,0.16143139,0.9840849,785.31134,771.2088,774.43225,786.1172,
1.0499032,0.23022336,0.36056632,0.9987081,0.6085637,0.18857548,0.16143139,0.9840849,784.5055,771.6117,780.4762,788.93774,
1.0499032,0.23022336,0.36056632,0.9987081,0.6085637,0.18857548,0.16143139,0.9840849,786.1172,776.04395,783.2967,783.2967,
1.0499032,0.23022336,0.36056632,0.9987081,0.6085637,0.18857548,0.16143139,0.9840849,788.1319,774.0293,778.86444,785.31134,
1.0499032,0.23022336,0.36056632,0.9987081,0.6085637,0.18857548,0.16143139,0.9840849,790.54944,772.01465,774.0293,789.7436,
1.0499032,0.23022336,0.36056632,0.9987081,0.6085637,0.18857548,0.16143139,0.9840849,796.99634,776.4469,777.6557,789.34064,
1.0499032,0.22302482,0.33782342,0.9987081,0.6085637,0.19460702,0.10867282,0.9840849,794.9817,776.8498,777.6557,792.5641,
1.0499032,0.22302482,0.33782342,0.9987081,0.6085637,0.19460702,0.10867282,0.9840849,792.96704,774.43225,780.4762,797.3993,
1.0499032,0.22302482,0.33782342,0.9987081,0.6085637,0.19460702,0.10867282,0.9840849,797.8022,774.83514,784.10254,791.75824,
1.0499032,0.22302482,0.33782342,0.9987081,0.6085637,0.19460702,0.10867282,0.9840849,798.20514,772.4176,778.46155,784.5055,
1.0499032,0.22302482,0.33782342,0.9987081,0.6085637,0.19460702,0.10867282,0.9840849,801.4286,767.98535,780.07324,789.7436,
1.0499032,0.22302482,0.33782342,0.9987081,0.6085637,0.19460702,0.10867282,0.9840849,799.81683,765.56775,780.4762,793.36993,
1.0499032,0.22302482,0.33782342,0.9987081,0.6085637,0.19460702,0.10867282,0.9840849,795.78754,765.56775,773.6264,788.93774,
1.0499032,0.22302482,0.33782342,0.9987081,0.6085637,0.19460702,0.10867282,0.9840849,794.9817,764.35895,772.01465,790.9524,
1.0499032,0.22302482,0.33782342,0.9987081,0.6085637,0.19460702,0.10867282,0.9840849,790.14655,763.1502,774.43225,792.1612,
1.0499032,0.22302482,0.33782342,0.9987081,0.6085637,0.19460702,0.10867282,0.9840849,790.54944,761.9414,770.40295,789.34064,
1.0499032,0.22302482,0.33782342,0.9987081,0.6085637,0.19460702,0.10867282,0.9840849,795.38464,760.32965,765.16486,800.2198,
1.0499032,0.22302482,0.33782342,0.9987081,0.6085637,0.19460702,0.10867282,0.9840849,797.3993,760.7326,759.5238,803.0403,
1.0499032,0.22302482,0.33782342,0.9987081,0.6085637,0.19460702,0.10867282,0.9840849,797.3993,759.5238,762.3443,797.3993,
1.0499032,0.22302482,0.33782342,0.9987081,0.6085637,0.19460702,0.10867282,0.9840849,795.78754,756.7033,773.22345,795.78754,
1.0499032,0.22302482,0.33782342,0.9987081,0.6085637,0.19460702,0.10867282,0.9840849,788.93774,757.1062,777.25275,786.1172,
1.0499032,0.22302482,0.33782342,0.9987081,0.6085637,0.19460702,0.10867282,0.9840849,791.3553,761.9414,776.4469,788.5348,
1.0499032,0.22302482,0.33782342,0.9987081,0.6085637,0.19460702,0.10867282,0.9840849,791.3553,762.74725,778.46155,789.7436,
1.0499032,0.22302482,0.33782342,0.9987081,0.6085637,0.19460702,0.10867282,0.9840849,790.54944,765.56775,783.69965,789.34064,
1.0499032,0.22302482,0.33782342,0.9987081,0.6085637,0.19460702,0.10867282,0.9840849,795.78754,770.40295,783.2967,791.3553,
1.0499032,0.22302482,0.33782342,0.9987081,0.6085637,0.19460702,0.10867282,0.9840849,793.7729,765.56775,775.64105,788.5348,
1.0499032,0.22302482,0.33782342,0.9987081,0.6085637,0.19460702,0.10867282,0.9840849,793.7729,763.95605,774.43225,788.5348,
1.0499032,0.22302482,0.33782342,0.9987081,0.6085637,0.19460702,0.10867282,0.9840849,791.75824,768.3883,780.07324,789.7436,
1.0499032,0.22302482,0.33782342,0.9987081,0.6085637,0.19460702,0.10867282,0.9840849,789.34064,767.98535,782.8938,793.7729,
1.0499032,0.22302482,0.33782342,0.9987081,0.6085637,0.19460702,0.10867282,0.9840849,787.72894,765.9707,788.1319,792.96704,
1.0499032,0.22302482,0.33782342,0.9987081,0.6085637,0.19460702,0.10867282,0.9840849,783.69965,767.98535,791.75824,790.54944,
1.0499032,0.22302482,0.33782342,0.9987081,0.6085637,0.19460702,0.10867282,0.9840849,784.90845,770.0,784.90845,794.17584,
1.0499032,0.22593403,0.33297628,0.9987081,0.6085637,0.19787836,0.07087243,0.9840849,794.17584,769.19415,780.4762,796.99634,
1.0499032,0.22593403,0.33297628,0.9987081,0.6085637,0.19787836,0.07087243,0.9840849,799.81683,773.22345,786.9231,789.7436,
1.0499032,0.22593403,0.33297628,0.9987081,0.6085637,0.19787836,0.07087243,0.9840849,803.0403,774.83514,789.34064,790.14655,
1.0499032,0.22593403,0.33297628,0.9987081,0.6085637,0.19787836,0.07087243,0.9840849,810696,778.0586,794.9817,802.23444,
1.0499032,0.22593403,0.33297628,0.9987081,0.6085637,0.19787836,0.07087243,0.9840849,808.68134,783.69965,799.41394,805.4579,
1.0499032,0.22593403,0.33297628,0.9987081,0.6085637,0.19787836,0.07087243,0.9840849,803.8461,781.28204,792.1612,796.99634,
1.0499032,0.22593403,0.33297628,0.9987081,0.6085637,0.19787836,0.07087243,0.9840849,807.47253,781685,792.5641,798.20514,
1.0499032,0.22593403,0.33297628,0.9987081,0.6085637,0.19787836,0.07087243,0.9840849,804.65204,785.7143,802.23444,813.5165,
1.0499032,0.22593403,0.33297628,0.9987081,0.6085637,0.19787836,0.07087243,0.9840849,795.78754,782.0879,800.6227,814.7253,
1.0499032,0.22593403,0.33297628,0.9987081,0.6085637,0.19787836,0.07087243,0.9840849,792.1612,781685,795.38464,806.26373,
1.0499032,0.22593403,0.33297628,0.9987081,0.6085637,0.19787836,0.07087243,0.9840849,795.38464,786.9231,794.17584,802.23444,
1.0499032,0.22593403,0.33297628,0.9987081,0.6085637,0.19787836,0.07087243,0.9840849,799011,788.5348,793.7729,799011,
1.0499032,0.22593403,0.33297628,0.9987081,0.6085637,0.19787836,0.07087243,0.9840849,801.02563,787.72894,794.9817,795.38464,
1.0499032,0.22593403,0.33297628,0.9987081,0.6085637,0.19787836,0.07087243,0.9840849,799.41394,787.72894,795.78754,796.99634,
1.0499032,0.22593403,0.33297628,0.9987081,0.6085637,0.19787836,0.07087243,0.9840849,798.60803,787.72894,792.5641,797.3993,
1.0499032,0.22593403,0.33297628,0.9987081,0.6085637,0.19787836,0.07087243,0.9840849,800.2198,788.5348,790.54944,791.75824,
1.0499032,0.22593403,0.33297628,0.9987081,0.6085637,0.19787836,0.07087243,0.9840849,801.02563,787.72894,795.78754,792.1612,
1.0499032,0.22593403,0.33297628,0.9987081,0.6085637,0.19787836,0.07087243,0.9840849,797.8022,786.52014,792.5641,791.3553,
1.0499032,0.22593403,0.33297628,0.9987081,0.6085637,0.19787836,0.07087243,0.9840849,796.99634,785.7143,782.49084,790.54944,
1.0499032,0.22593403,0.33297628,0.9987081,0.6085637,0.19787836,0.07087243,0.9840849,801.8315,785.7143,781.28204,797.8022,
1.0499032,0.22593403,0.33297628,0.9987081,0.6085637,0.19787836,0.07087243,0.9840849,800.2198,783.69965,783.2967,796.1905,
1.0499032,0.22593403,0.33297628,0.9987081,0.6085637,0.19787836,0.07087243,0.9840849,798.60803,781685,782.8938,796.5934,
1.0499032,0.22593403,0.33297628,0.9987081,0.6085637,0.19787836,0.07087243,0.9840849,797.8022,782.0879,785.7143,797.3993,
1.0499032,0.22593403,0.33297628,0.9987081,0.6085637,0.19787836,0.07087243,0.9840849,799011,785.31134,792.5641,794.9817,
1.0499032,0.22593403,0.33297628,0.9987081,0.6085637,0.19787836,0.07087243,0.9840849,801.02563,784.10254,790.9524,797.3993,
1.0499032,0.22593403,0.33297628,0.9987081,0.6085637,0.19787836,0.07087243,0.9840849,799011,779.67035,781685,799011,
1.0499032,0.22593403,0.33389413,0.9987081,0.6085637,0.20151985,0.046808634,0.9840849,799011,782.8938,782.0879,796.1905,
1.0499032,0.22593403,0.33389413,0.9987081,0.6085637,0.20151985,0.046808634,0.9840849,803.0403,788.1319,790.14655,796.1905,
1.0499032,0.22593403,0.33389413,0.9987081,0.6085637,0.20151985,0.046808634,0.9840849,806.26373,786.9231,793.7729,800.2198,
1.0499032,0.22593403,0.33389413,0.9987081,0.6085637,0.20151985,0.046808634,0.9840849,798.60803,780.87915,787.72894,800.2198,
1.0499032,0.22593403,0.33389413,0.9987081,0.6085637,0.20151985,0.046808634,0.9840849,800.2198,781.28204,781685,806.6667,
1.0499032,0.22593403,0.33389413,0.9987081,0.6085637,0.20151985,0.046808634,0.9840849,808.2784,784.90845,789.7436,804.65204,
1.0499032,0.22593403,0.33389413,0.9987081,0.6085637,0.20151985,0.046808634,0.9840849,807.8755,780.4762,789.34064,802.6374,
1.0499032,0.22593403,0.33389413,0.9987081,0.6085637,0.20151985,0.046808634,0.9840849,805.05493,776.4469,784.90845,809.89014,
1.0499032,0.22593403,0.33389413,0.9987081,0.6085637,0.20151985,0.046808634,0.9840849,804.65204,786.52014,792.5641,811.0989,
1.0499032,0.22593403,0.33389413,0.9987081,0.6085637,0.20151985,0.046808634,0.9840849,801.02563,789.34064,790.9524,806.6667,
1.0499032,0.22593403,0.33389413,0.9987081,0.6085637,0.20151985,0.046808634,0.9840849,795.78754,780.4762,788.5348,801.02563,
1.0499032,0.22593403,0.33389413,0.9987081,0.6085637,0.20151985,0.046808634,0.9840849,796.5934,780.07324,796.99634,799.41394,
1.0499032,0.22593403,0.33389413,0.9987081,0.6085637,0.20151985,0.046808634,0.9840849,794.57874,779.67035,798.20514,797.8022,
1.0499032,0.22593403,0.33389413,0.9987081,0.6085637,0.20151985,0.046808634,0.9840849,793.36993,775.64105,791.3553,793.7729,
1.0499032,0.22593403,0.33389413,0.9987081,0.6085637,0.20151985,0.046808634,0.9840849,796.1905,771.2088,788.5348,797.8022,
1.0499032,0.22593403,0.33389413,0.9987081,0.6085637,0.20151985,0.046808634,0.9840849,799011,776.04395,789.7436,803.0403,
1.0499032,0.22593403,0.33389413,0.9987081,0.6085637,0.20151985,0.046808634,0.9840849,799.81683,785.31134,786.9231,807.0696,
1.0499032,0.22593403,0.33389413,0.9987081,0.6085637,0.20151985,0.046808634,0.9840849,799.41394,783.2967,782.49084,806.6667,
1.0499032,0.22593403,0.33389413,0.9987081,0.6085637,0.20151985,0.046808634,0.9840849,796.5934,776.04395,779.67035,804.2491,
1.0499032,0.22593403,0.33389413,0.9987081,0.6085637,0.20151985,0.046808634,0.9840849,790.54944,769.59705,784.5055,807.47253,
1.0499032,0.22593403,0.33389413,0.9987081,0.6085637,0.20151985,0.046808634,0.9840849,789.34064,766.3736,789.7436,804.65204,
1.0499032,0.22593403,0.33389413,0.9987081,0.6085637,0.20151985,0.046808634,0.9840849,794.9817,774.43225,794.57874,795.78754,
1.0499032,0.22593403,0.33389413,0.9987081,0.6085637,0.20151985,0.046808634,0.9840849,801.8315,780.4762,789.34064,796.99634,
1.0499032,0.22593403,0.33389413,0.9987081,0.6085637,0.20151985,0.046808634,0.9840849,802.23444,782.8938,764.7619,803.44324,
1.0499032,0.22593403,0.33389413,0.9987081,0.6085637,0.20151985,0.046808634,0.9840849,806.6667,787326,757.9121,811.50183,
1.0499032,0.22593403,0.33389413,0.9987081,0.6085637,0.20151985,0.046808634,0.9840849,804.2491,788.1319,762.3443,812.71063,
1.0499032,0.22593403,0.33389413,0.9987081,0.6085637,0.20395336,0.033873655,0.9840849,798.60803,784.10254,764.7619,798.20514,
1.0499032,0.22593403,0.33389413,0.9987081,0.6085637,0.20395336,0.033873655,0.9840849,797.8022,779.2674,773.6264,795.38464,
1.0499032,0.22593403,0.33389413,0.9987081,0.6085637,0.20395336,0.033873655,0.9840849,795.78754,777.25275,783.2967,804.2491,
1.0499032,0.22593403,0.33389413,0.9987081,0.6085637,0.20395336,0.033873655,0.9840849,807.8755,786.52014,788.1319,807.0696,
1.0499032,0.22593403,0.33389413,0.9987081,0.6085637,0.20395336,0.033873655,0.9840849,823.5897,788.93774,772.4176,815.5311,
1.0499032,0.22593403,0.33389413,0.9987081,0.6085637,0.20395336,0.033873655,0.9840849,812.3077,775.64105,758.71796,814.7253,
1.0499032,0.22593403,0.33389413,0.9987081,0.6085637,0.20395336,0.033873655,0.9840849,795.78754,770.40295,771.2088,794.17584,
1.0499032,0.22593403,0.33389413,0.9987081,0.6085637,0.20395336,0.033873655,0.9840849,789.34064,772.4176,788.1319,794.9817,
1.0499032,0.22593403,0.33389413,0.9987081,0.6085637,0.20395336,0.033873655,0.9840849,783.2967,775.64105,788.5348,790.14655,
1.0499032,0.22593403,0.33389413,0.9987081,0.6085637,0.20395336,0.033873655,0.9840849,776.04395,773.22345,797.8022,775.64105,
1.0499032,0.22593403,0.33389413,0.9987081,0.6085637,0.20395336,0.033873655,0.9840849,778.0586,774.0293,807.47253,780.4762,
1.0499032,0.22593403,0.33389413,0.9987081,0.6085637,0.20395336,0.033873655,0.9840849,788.1319,778.46155,803.8461,780.07324,
1.0499032,0.22593403,0.33389413,0.9987081,0.6085637,0.20395336,0.033873655,0.9840849,787.72894,782.0879,796.1905,782.8938,
1.0499032,0.22593403,0.33389413,0.9987081,0.6085637,0.20395336,0.033873655,0.9840849,788.1319,785.31134,793.36993,794.57874,
1.0499032,0.22593403,0.33389413,0.9987081,0.6085637,0.20395336,0.033873655,0.9840849,793.7729,785.7143,780.87915,796.99634,
1.0499032,0.22593403,0.33389413,0.9987081,0.6085637,0.20395336,0.033873655,0.9840849,792.1612,780.87915,768.3883,789.34064,
1.0499032,0.22593403,0.33389413,0.9987081,0.6085637,0.20395336,0.033873655,0.9840849,792.1612,778.0586,769.19415,786.1172,
1.0499032,0.22593403,0.33389413,0.9987081,0.6085637,0.20395336,0.033873655,0.9840849,791.3553,776.04395,773.6264,789.34064,
1.0499032,0.22593403,0.33389413,0.9987081,0.6085637,0.20395336,0.033873655,0.9840849,791.75824,774.43225,776.04395,792.5641,
1.0499032,0.22593403,0.33389413,0.9987081,0.6085637,0.20395336,0.033873655,0.9840849,796.5934,776.04395,778.86444,796.99634,
1.0499032,0.22593403,0.33389413,0.9987081,0.6085637,0.20395336,0.033873655,0.9840849,800.6227,780.87915,781685,799011,
1.0499032,0.22593403,0.33389413,0.9987081,0.6085637,0.20395336,0.033873655,0.9840849,796.1905,783.2967,782.0879,794.57874,
1.0499032,0.22593403,0.33389413,0.9987081,0.6085637,0.20395336,0.033873655,0.9840849,788.5348,778.46155,780.87915,784.5055,
1.0499032,0.22593403,0.33389413,0.9987081,0.6085637,0.20395336,0.033873655,0.9840849,788.5348,776.8498,782.8938,785.31134,
1.0499032,0.22593403,0.33389413,0.9987081,0.6085637,0.20395336,0.033873655,0.9840849,789.34064,779.2674,782.0879,790.54944,
1.0499032,0.22593403,0.33389413,0.9987081,0.6085637,0.20395336,0.033873655,0.9840849,786.9231,780.4762,784.5055,787.72894,
1.0499032,0.22238868,0.336344,0.9987081,0.6085637,0.20168164,0.032301426,0.9840849,790.9524,782.0879,792.96704,789.7436,
1.0499032,0.22238868,0.336344,0.9987081,0.6085637,0.20168164,0.032301426,0.9840849,796.1905,783.2967,795.78754,792.5641,
1.0499032,0.22238868,0.336344,0.9987081,0.6085637,0.20168164,0.032301426,0.9840849,795.38464,785.31134,788.5348,792.5641,
1.0499032,0.22238868,0.336344,0.9987081,0.6085637,0.20168164,0.032301426,0.9840849,794.17584,782.49084,776.4469,792.1612,
1.0499032,0.22238868,0.336344,0.9987081,0.6085637,0.20168164,0.032301426,0.9840849,792.1612,780.87915,778.0586,794.17584,
1.0499032,0.22238868,0.336344,0.9987081,0.6085637,0.20168164,0.032301426,0.9840849,788.5348,782.8938,791.3553,792.1612,
1.0499032,0.22238868,0.336344,0.9987081,0.6085637,0.20168164,0.032301426,0.9840849,789.7436,780.4762,792.96704,793.7729,
1.0499032,0.22238868,0.336344,0.9987081,0.6085637,0.20168164,0.032301426,0.9840849,793.7729,784.10254,789.34064,791.75824,
1.0499032,0.22238868,0.336344,0.9987081,0.6085637,0.20168164,0.032301426,0.9840849,786.9231,779.67035,784.5055,787.72894,
1.0499032,0.22238868,0.336344,0.9987081,0.6085637,0.20168164,0.032301426,0.9840849,781.28204,776.8498,781685,789.7436,
1.0499032,0.22238868,0.336344,0.9987081,0.6085637,0.20168164,0.032301426,0.9840849,782.0879,781685,790.54944,788.5348,
1.0499032,0.22238868,0.336344,0.9987081,0.6085637,0.20168164,0.032301426,0.9840849,784.10254,780.4762,791.3553,787326,
1.0499032,0.22238868,0.336344,0.9987081,0.6085637,0.20168164,0.032301426,0.9840849,787.72894,778.0586,786.9231,791.75824,
1.0499032,0.22238868,0.336344,0.9987081,0.6085637,0.20168164,0.032301426,0.9840849,786.52014,777.25275,785.31134,796.5934,
1.0499032,0.22238868,0.336344,0.9987081,0.6085637,0.20168164,0.032301426,0.9840849,787326,779.67035,781685,791.75824,
1.0499032,0.22238868,0.336344,0.9987081,0.6085637,0.20168164,0.032301426,0.9840849,791.75824,781685,780.87915,788.5348,
1.0499032,0.22238868,0.336344,0.9987081,0.6085637,0.20168164,0.032301426,0.9840849,793.36993,782.8938,785.31134,793.7729,
1.0499032,0.22238868,0.336344,0.9987081,0.6085637,0.20168164,0.032301426,0.9840849,796.1905,786.52014,790.9524,803.44324,
1.0499032,0.22238868,0.336344,0.9987081,0.6085637,0.20168164,0.032301426,0.9840849,798.20514,784.5055,789.34064,803.44324,
1.0499032,0.22238868,0.336344,0.9987081,0.6085637,0.20168164,0.032301426,0.9840849,790.54944,779.2674,777.25275,799011,
1.0499032,0.22238868,0.336344,0.9987081,0.6085637,0.20168164,0.032301426,0.9840849,786.52014,778.46155,775.64105,792.5641,
1.0499032,0.22238868,0.336344,0.9987081,0.6085637,0.20168164,0.032301426,0.9840849,792.96704,774.83514,783.2967,793.7729,
1.0499032,0.22238868,0.336344,0.9987081,0.6085637,0.20168164,0.032301426,0.9840849,795.38464,776.4469,785.7143,796.99634,
1.0499032,0.22238868,0.336344,0.9987081,0.6085637,0.20168164,0.032301426,0.9840849,792.96704,779.67035,779.67035,794.9817,
1.0499032,0.22238868,0.336344,0.9987081,0.6085637,0.20168164,0.032301426,0.9840849,794.9817,782.49084,768.3883,797.3993,
1.0499032,0.22238868,0.336344,0.9987081,0.6085637,0.20168164,0.032301426,0.9840849,795.38464,784.90845,769.19415,791.3553,
1.0499032,0.21199697,0.36738262,0.9987081,0.6085637,0.19446474,0.046569355,0.9840849,793.7729,780.87915,776.04395,789.7436,
1.0499032,0.21199697,0.36738262,0.9987081,0.6085637,0.19446474,0.046569355,0.9840849,792.96704,776.8498,780.4762,793.36993,
1.0499032,0.21199697,0.36738262,0.9987081,0.6085637,0.19446474,0.046569355,0.9840849,795.78754,773.6264,782.8938,797.3993,
