EEG 1,EEG 2,EEG 3,EEG 4,EEG 5,EEG 6,EEG 7,EEG 8,Accelerometer X,Accelerometer Y,Accelerometer Z,Gyroscope X,Gyroscope Y,Gyroscope Z,Battery Level,Counter,Validation Indicator
20.557,14.384,22.312,114.181,65.655,54.288,51.900,27.838,-0.134,0.735,0.672,-1.587,-0.153,-0.488,86.667,15913.000,1.000
-5.554,0.602,8.693,88.440,45.978,35.619,29.834,14.345,-0.138,0.736,0.671,-1.495,-0.427,-0.580,86.667,15914.000,1.000
-44.336,-19.018,-12.673,6.107,1.596,-4.959,-19.568,-7.430,-0.136,0.735,0.670,-1.495,-0.732,-0.610,86.667,15915.000,1.000
-85.851,-38.637,-35.848,-122.224,-57.371,-58.065,-86.082,-31.099,-0.141,0.736,0.670,-1.556,-0.977,-0.732,86.667,15916.000,1.000
-116.767,-51.726,-54.159,-268.850,-115.378,-109.435,-151.385,-49.602,-0.145,0.734,0.669,-1.587,-1.160,-0.702,86.667,15917.000,1.000
-126.635,-54.298,-63.196,-401.110,-158.532,-146.336,-197.321,-58.564,-0.145,0.733,0.669,-1.648,-1.434,-0.793,86.667,15918.000,1.000
-112.045,-46.027,-61.513,-490.673,-177.503,-160.557,-211.685,-56.856,-0.146,0.734,0.667,-1.587,-1.740,-0.763,86.667,15919.000,1.000
-77.283,-29.472,-49.904,-518.854,-167.770,-148.879,-190.628,-45.454,-0.147,0.735,0.667,-1.526,-2.045,-0.763,86.667,15920.000,1.000
-32.579,-9.066,-31.178,-482.335,-131.318,-114.218,-139.934,-27.063,-0.146,0.732,0.668,-1.556,-2.228,-0.702,86.667,15921.000,1.000
9.778,10.064,-10.026,-396.533,-78.120,-66.210,-74.002,-6.162,-0.147,0.731,0.668,-1.526,-2.472,-0.549,86.667,15922.000,1.000
40.560,23.971,8.522,-289.173,-22.611,-17.701,-10.040,12.418,-0.148,0.732,0.665,-1.434,-2.625,-0.549,86.667,15923.000,1.000
57.063,31.468,21.483,-185.087,24.149,21.933,40.257,25.983,-0.146,0.733,0.667,-1.434,-2.747,-0.519,86.667,15924.000,1.000
62.582,34.015,29.066,-94.159,59.755,50.940,75.140,35.049,-0.145,0.733,0.667,-1.282,-3.052,-0.397,86.667,15925.000,1.000
62.673,34.036,33.412,-13.030,87.972,72.799,99.647,41.623,-0.144,0.733,0.665,-1.434,-3.174,-0.244,86.667,15926.000,1.000
61.092,33.120,36.152,62.493,111.420,90.036,118.277,46.496,-0.144,0.735,0.662,-1.373,-3.235,0.000,86.667,15927.000,1.000
58.373,31.469,37.345,128.635,127.849,101.241,131.045,48.648,-0.143,0.735,0.663,-1.221,-3.296,0.183,86.667,15928.000,1.000
53.639,28.751,36.636,177.676,133.830,104.250,136.169,47.288,-0.141,0.736,0.661,-1.251,-3.326,0.336,86.667,15929.000,1.000
46.947,24.967,34.408,207.493,130.050,100.262,134.392,43.409,-0.138,0.736,0.661,-1.068,-3.174,0.610,86.667,15930.000,1.000
39.227,20.273,31.160,223.268,120.897,92.957,128.695,38.618,-0.135,0.737,0.662,-1.038,-3.021,0.824,86.667,15931.000,1.000
30.678,14.535,26.517,230.122,109.507,84.310,120.533,33.197,-0.129,0.734,0.661,-1.068,-2.991,1.007,86.667,15932.000,1.000
20.803,7.878,19.881,228.169,95.603,73.378,108.781,26.474,-0.125,0.730,0.658,-1.007,-2.655,1.343,86.667,15933.000,1.000
10.693,1.850,12.288,217.584,79.283,60.038,93.553,19.110,-0.122,0.729,0.658,-0.824,-2.258,1.648,86.667,15934.000,1.000
4.233,-0.597,7.043,206.477,65.296,48.584,79.759,14.099,-0.118,0.727,0.655,-0.732,-1.953,1.923,86.667,15935.000,1.000
5.398,2.733,7.586,208.829,60.863,45.525,74.546,14.589,-0.114,0.729,0.656,-0.549,-1.556,2.167,86.667,15936.000,1.000
14.079,10.864,14.356,232.830,68.695,53.416,80.683,20.639,-0.110,0.731,0.652,-0.488,-1.007,2.411,86.667,15937.000,1.000
25.795,20.082,24.376,274.235,84.347,68.526,94.170,28.904,-0.106,0.729,0.653,-0.305,-0.458,2.747,86.667,15938.000,1.000
35.787,26.980,34.156,323.061,101.445,85.239,109.078,35.815,-0.103,0.731,0.651,-0.275,0.092,2.991,86.667,15939.000,1.000
42.271,30.411,42.102,373.730,117.470,100.884,122.759,40.150,-0.099,0.733,0.650,-0.122,0.702,3.235,86.667,15940.000,1.000
45.398,30.537,47.755,425.071,132.562,114.888,134.756,42.154,-0.098,0.734,0.652,-0.031,1.312,3.479,86.667,15941.000,1.000
44.454,27.130,49.845,471.736,143.990,124.595,142.079,41.265,-0.097,0.732,0.652,-0.061,1.953,3.632,86.667,15942.000,1.000
37.644,19.685,46.369,500.831,144.979,124.584,138.629,35.973,-0.097,0.732,0.650,0.000,2.686,3.723,86.667,15943.000,1.000
24.914,9.215,36.976,500.608,130.666,111.460,120.789,26.206,-0.094,0.733,0.647,-0.092,3.174,3.967,86.667,15944.000,1.000
9.567,-1.092,24.482,470.967,103.697,88.130,92.084,14.892,-0.091,0.733,0.648,-0.061,3.845,3.937,86.667,15945.000,1.000
-4.229,-8.140,12.828,422.089,71.712,61.369,60.246,5.794,-0.092,0.731,0.648,-0.183,4.456,3.967,86.667,15946.000,1.000
-15.057,-11.733,3.541,363.295,39.815,35.382,30.076,-0.191,-0.091,0.734,0.648,-0.244,5.035,3.876,86.667,15947.000,1.000
-24.166,-14.093,-4.741,296.912,7.883,9.654,1.113,-5.349,-0.090,0.733,0.647,-0.244,5.554,3.723,86.667,15948.000,1.000
-31.894,-16.467,-13.066,224.325,-24.239,-16.409,-27.449,-11.493,-0.091,0.736,0.646,-0.397,5.981,3.540,86.667,15949.000,1.000
-35.593,-17.358,-19.697,154.596,-51.439,-38.766,-51.709,-17.106,-0.093,0.736,0.646,-0.488,6.531,3.448,86.667,15950.000,1.000
-32.012,-14.677,-21.755,102.390,-65.881,-50.816,-65.007,-18.947,-0.094,0.737,0.644,-0.549,6.897,3.174,86.667,15951.000,1.000
-21.195,-8.731,-18.697,76.445,-64.589,-49.939,-64.592,-15.826,-0.096,0.737,0.645,-0.702,7.172,2.991,86.667,15952.000,1.000
-7.050,-2.146,-13.028,72.963,-52.353,-40.142,-54.442,-9.792,-0.097,0.738,0.648,-0.671,7.446,2.625,86.667,15953.000,1.000
5.999,2.872,-7.553,82.067,-36.418,-27.556,-40.805,-3.692,-0.100,0.737,0.650,-0.824,7.690,2.411,86.667,15954.000,1.000
16.092,6.242,-2.935,98.431,-20.044,-14.806,-26.528,1.437,-0.102,0.737,0.650,-0.977,7.843,1.953,86.667,15955.000,1.000
23.160,8.653,1.351,121.944,-3.185,-1.564,-11.612,5.768,-0.105,0.738,0.648,-1.190,7.996,1.648,86.667,15956.000,1.000
26.135,9.369,4.376,148.545,11.612,10.264,1.618,8.244,-0.108,0.737,0.647,-1.434,8.026,1.373,86.667,15957.000,1.000
22.688,6.413,3.493,165.692,17.444,14.942,7.070,6.294,-0.112,0.737,0.649,-1.587,8.057,1.160,86.667,15958.000,1.000
12.253,-0.902,-2.831,160.677,9.000,7.963,0.180,-1.408,-0.115,0.738,0.650,-1.526,7.874,0.824,86.667,15959.000,1.000
-1.974,-10.334,-12.644,131.955,-11.276,-8.633,-16.807,-12.606,-0.116,0.737,0.651,-1.831,7.721,0.610,86.667,15960.000,1.000
-15.328,-18.396,-22.041,88.769,-35.346,-28.005,-36.950,-23.057,-0.119,0.735,0.650,-1.801,7.507,0.366,86.667,15961.000,1.000
-25.548,-23.431,-28.896,39.805,-57.579,-45.363,-55.661,-30.418,-0.124,0.738,0.652,-1.923,7.080,0.244,86.667,15962.000,1.000
-33.292,-26.113,-33.882,-13.971,-78.279,-61.054,-73.522,-35.371,-0.128,0.738,0.651,-2.045,6.744,0.092,86.667,15963.000,1.000
-39.176,-27.204,-37.774,-73.440,-98.753,-76.338,-91.623,-38.827,-0.132,0.741,0.652,-2.106,6.378,0.000,86.667,15964.000,1.000
-41.742,-26.172,-39.293,-131.587,-115.470,-88.369,-106.415,-39.595,-0.135,0.744,0.654,-2.258,5.829,-0.183,86.667,15965.000,1.000
-39.097,-22.396,-36.466,-174.293,-121.665,-91.615,-111.421,-35.757,-0.137,0.744,0.655,-2.502,5.463,-0.366,86.667,15966.000,1.000
-31.806,-16.720,-29.267,-191.669,-114.356,-83.765,-103.693,-27.524,-0.140,0.743,0.657,-2.655,4.913,-0.275,86.667,15967.000,1.000
-22.995,-10.926,-20.009,-185.794,-97.578,-68.294,-86.795,-17.702,-0.143,0.744,0.656,-2.808,4.364,-0.275,86.667,15968.000,1.000
-15.343,-5.904,-11.277,-165.739,-77.857,-50.678,-66.823,-9.341,-0.146,0.743,0.654,-2.838,3.540,-0.305,86.667,15969.000,1.000
-8.779,-0.973,-4.075,-137.521,-58.051,-33.526,-46.941,-3.425,-0.147,0.743,0.652,-2.991,2.930,-0.366,86.667,15970.000,1.000
-1.877,4.724,1.839,-102.501,-37.456,-16.735,-27.267,0.895,-0.151,0.741,0.655,-3.113,2.197,-0.275,86.667,15971.000,1.000
5.065,10.577,6.371,-64.925,-17.140,-1.497,-9.245,4.261,-0.153,0.743,0.659,-3.357,1.556,-0.336,86.667,15972.000,1.000
9.521,14.762,8.599,-36.199,-2.415,8.140,2.489,6.070,-0.155,0.743,0.658,-3.418,0.916,-0.336,86.667,15973.000,1.000
9.403,15.967,7.846,-28.236,1.267,8.599,3.732,5.509,-0.154,0.744,0.658,-3.540,0.122,-0.336,86.667,15974.000,1.000
4.996,14.226,4.428,-43.928,-6.695,0.284,-5.213,2.709,-0.153,0.745,0.659,-3.632,-0.641,-0.427,86.667,15975.000,1.000
-2.483,9.763,-1.450,-77.370,-23.033,-13.928,-20.878,-2.076,-0.155,0.742,0.658,-3.632,-1.373,-0.458,86.667,15976.000,1.000
-13.170,1.807,-10.977,-122.888,-45.638,-33.028,-41.271,-9.911,-0.156,0.742,0.660,-3.723,-1.953,-0.336,86.667,15977.000,1.000
-27.601,-10.159,-25.263,-179.472,-74.482,-58.011,-66.565,-22.081,-0.155,0.743,0.659,-3.784,-2.686,-0.275,86.667,15978.000,1.000
-43.336,-23.729,-41.976,-243.981,-106.399,-86.632,-94.211,-36.849,-0.154,0.741,0.659,-3.815,-3.418,-0.183,86.667,15979.000,1.000
-54.221,-33.423,-54.719,-303.453,-131.695,-110.267,-115.733,-48.533,-0.151,0.739,0.660,-3.845,-3.998,-0.183,86.667,15980.000,1.000
-54.493,-34.404,-57.145,-339.523,-139.266,-118.636,-121.251,-51.256,-0.147,0.738,0.660,-3.754,-4.456,-0.244,86.667,15981.000,1.000
-43.526,-26.406,-47.884,-341.847,-125.485,-107.916,-107.562,-43.693,-0.146,0.738,0.661,-3.815,-4.944,-0.214,86.667,15982.000,1.000
-25.907,-13.477,-31.113,-314.922,-96.636,-83.160,-80.413,-29.660,-0.144,0.738,0.659,-3.693,-5.310,-0.183,86.667,15983.000,1.000
-7.257,-0.253,-12.750,-271.016,-62.538,-53.001,-48.721,-14.379,-0.142,0.738,0.659,-3.723,-5.676,-0.183,86.667,15984.000,1.000
9.054,10.637,3.116,-219.067,-29.418,-23.464,-18.113,-1.146,-0.139,0.737,0.660,-3.693,-5.951,-0.061,86.667,15985.000,1.000
21.353,17.949,14.412,-162.955,0.223,2.515,9.154,8.490,-0.139,0.736,0.658,-3.632,-6.226,0.031,86.667,15986.000,1.000
27.702,20.427,19.564,-108.954,22.930,21.570,29.924,12.994,-0.139,0.736,0.656,-3.510,-6.439,0.122,86.667,15987.000,1.000
26.175,17.289,17.543,-69.449,33.086,29.090,39.030,10.966,-0.139,0.736,0.657,-3.448,-6.561,0.122,86.667,15988.000,1.000
17.242,9.828,9.588,-55.577,27.794,23.128,33.724,3.177,-0.137,0.736,0.659,-3.357,-6.714,0.183,86.667,15989.000,1.000
4.593,1.352,-0.499,-67.646,11.081,7.489,17.558,-6.723,-0.136,0.737,0.658,-3.418,-6.805,0.153,86.667,15990.000,1.000
-7.416,-5.167,-8.896,-96.040,-8.974,-10.912,-2.030,-14.635,-0.132,0.738,0.656,-3.357,-6.714,0.183,86.667,15991.000,1.000
-16.795,-9.097,-14.400,-131.360,-27.099,-27.589,-19.779,-19.040,-0.128,0.740,0.655,-3.357,-6.683,0.183,86.667,15992.000,1.000
-23.890,-11.620,-18.173,-170.776,-43.297,-42.225,-35.071,-21.152,-0.125,0.742,0.655,-3.296,-6.592,0.092,86.667,15993.000,1.000
-28.602,-13.398,-21.030,-213.186,-58.310,-54.891,-48.307,-22.148,-0.123,0.740,0.656,-3.357,-6.378,0.183,86.667,15994.000,1.000
-28.823,-13.245,-21.589,-251.100,-68.619,-62.264,-56.616,-20.988,-0.120,0.738,0.655,-3.235,-6.073,0.336,86.667,15995.000,1.000
-22.655,-9.702,-17.776,-271.943,-68.270,-59.614,-55.316,-15.742,-0.119,0.739,0.655,-3.265,-5.798,0.397,86.667,15996.000,1.000
-11.582,-3.443,-9.860,-268.493,-55.477,-46.321,-43.443,-6.727,-0.118,0.738,0.653,-3.296,-5.432,0.488,86.667,15997.000,1.000
-0.027,2.989,-0.890,-244.991,-35.117,-27.461,-25.654,2.868,-0.115,0.735,0.656,-3.265,-5.157,0.549,86.667,15998.000,1.000
8.494,7.828,6.268,-210.995,-13.719,-9.030,-7.621,9.836,-0.110,0.735,0.658,-3.235,-4.608,0.488,86.667,15999.000,1.000
13.981,11.582,11.563,-171.306,6.544,7.274,9.085,13.690,-0.108,0.733,0.653,-3.326,-4.211,0.671,86.667,16000.000,1.000
18.415,15.566,16.805,-125.281,27.214,23.265,26.016,16.137,-0.103,0.730,0.653,-3.174,-3.693,0.793,86.667,16001.000,1.000
22.236,19.548,22.492,-75.785,47.535,38.838,42.353,18.238,-0.103,0.728,0.651,-3.021,-3.296,0.916,86.667,16002.000,1.000
23.402,21.634,26.654,-34.283,61.810,49.554,52.834,19.061,-0.101,0.727,0.654,-2.930,-2.533,1.068,86.667,16003.000,1.000
20.040,20.484,27.134,-13.401,64.297,50.826,52.485,17.487,-0.102,0.728,0.656,-2.747,-2.045,1.038,86.667,16004.000,1.000
12.763,16.701,23.892,-15.970,55.084,42.904,41.838,14.082,-0.102,0.727,0.656,-2.502,-1.495,1.068,86.667,16005.000,1.000
3.633,11.564,18.319,-34.531,39.232,30.063,25.754,10.133,-0.104,0.728,0.652,-2.411,-0.885,1.160,86.667,16006.000,1.000
-6.127,5.359,11.281,-60.950,21.051,15.757,8.061,5.600,-0.104,0.729,0.652,-2.289,-0.427,1.221,86.667,16007.000,1.000
-16.222,-2.115,2.910,-93.040,1.349,0.366,-10.688,-0.687,-0.104,0.730,0.653,-2.106,0.122,1.190,86.667,16008.000,1.000
-25.144,-9.698,-5.683,-129.947,-19.031,-15.741,-29.750,-8.524,-0.103,0.733,0.652,-2.106,0.519,1.129,86.667,16009.000,1.000
-29.090,-14.451,-11.310,-163.657,-34.765,-28.308,-44.246,-14.706,-0.106,0.734,0.655,-1.953,1.007,1.190,86.667,16010.000,1.000
-24.536,-13.927,-10.577,-180.177,-38.176,-30.924,-47.304,-15.103,-0.107,0.736,0.656,-2.014,1.465,1.129,86.667,16011.000,1.000
-12.123,-8.899,-3.395,-170.866,-26.614,-21.345,-36.750,-8.788,-0.106,0.736,0.656,-2.106,1.740,1.007,86.667,16012.000,1.000
3.142,-2.927,6.362,-139.623,-5.501,-4.157,-17.716,0.771,-0.108,0.737,0.658,-2.197,2.136,0.793,86.667,16013.000,1.000
16.018,1.151,14.479,-96.755,17.297,14.090,2.594,9.189,-0.109,0.740,0.657,-2.380,2.411,0.549,86.667,16014.000,1.000
24.657,3.552,19.947,-48.166,38.480,30.996,21.317,15.029,-0.111,0.741,0.657,-2.594,2.594,0.336,86.667,16015.000,1.000
29.838,5.970,24.180,5.780,58.925,47.810,39.477,19.430,-0.111,0.742,0.656,-2.777,2.777,0.092,86.667,16016.000,1.000
31.758,8.535,27.587,61.345,77.531,63.784,56.162,22.796,-0.109,0.740,0.656,-2.991,2.960,0.061,86.667,16017.000,1.000
29.072,9.331,28.399,106.454,88.689,73.845,66.145,23.553,-0.108,0.744,0.658,-3.174,3.143,-0.092,86.667,16018.000,1.000
21.220,6.806,25.061,128.291,87.350,73.177,64.683,20.448,-0.108,0.743,0.658,-3.387,3.357,-0.183,86.667,16019.000,1.000
10.340,1.648,18.545,124.438,74.839,62.535,52.995,14.758,-0.109,0.743,0.660,-3.723,3.510,-0.275,86.667,16020.000,1.000
-0.188,-4.154,11.369,103.229,57.397,47.169,36.952,9.159,-0.112,0.743,0.656,-3.906,3.662,-0.336,86.667,16021.000,1.000
-8.658,-9.449,4.817,73.494,39.499,31.087,20.915,4.858,-0.112,0.740,0.656,-4.059,3.662,-0.519,86.667,16022.000,1.000
-15.567,-14.334,-1.753,37.613,20.954,14.453,4.971,0.883,-0.112,0.741,0.660,-4.089,3.723,-0.488,86.667,16023.000,1.000
-21.217,-18.633,-8.729,-3.644,1.245,-2.959,-11.344,-3.663,-0.115,0.740,0.665,-4.242,3.784,-0.488,86.667,16024.000,1.000
-23.773,-20.958,-14.386,-42.534,-15.500,-17.708,-24.633,-7.559,-0.118,0.738,0.664,-4.517,3.693,-0.580,86.667,16025.000,1.000
-20.667,-19.888,-16.084,-65.373,-22.318,-24.109,-29.120,-8.301,-0.121,0.738,0.659,-4.456,3.540,-0.641,86.667,16026.000,1.000
-11.664,-15.565,-12.952,-63.393,-16.090,-19.660,-22.395,-4.618,-0.123,0.738,0.662,-4.456,3.296,-0.732,86.667,16027.000,1.000
0.478,-9.432,-6.547,-39.888,-0.467,-7.428,-7.866,2.422,-0.126,0.738,0.662,-4.364,3.143,-0.702,86.667,16028.000,1.000
12.556,-2.587,1.107,-4.674,18.560,7.672,9.291,10.795,-0.131,0.738,0.664,-4.364,2.686,-0.763,86.667,16029.000,1.000
23.234,4.952,9.299,36.436,38.497,23.720,27.190,19.306,-0.134,0.734,0.665,-4.333,2.350,-0.885,86.667,16030.000,1.000
32.206,13.010,17.908,83.163,59.830,41.178,46.466,27.270,-0.137,0.733,0.667,-4.333,1.862,-1.068,86.667,16031.000,1.000
37.899,19.695,25.429,132.125,80.291,57.994,64.998,32.810,-0.139,0.732,0.669,-4.272,1.404,-1.251,86.667,16032.000,1.000
37.653,22.059,28.883,171.548,92.745,68.042,76.163,32.982,-0.140,0.729,0.668,-4.150,0.885,-1.343,86.667,16033.000,1.000
30.604,18.684,26.195,188.352,90.650,65.911,74.006,26.360,-0.143,0.731,0.669,-3.998,0.397,-1.495,86.667,16034.000,1.000
19.449,11.228,18.300,179.263,74.421,52.133,59.115,15.024,-0.144,0.731,0.668,-3.937,-0.275,-1.648,86.667,16035.000,1.000
8.508,3.078,8.385,151.913,50.638,32.327,37.812,3.262,-0.146,0.734,0.670,-3.876,-0.916,-1.862,86.667,16036.000,1.000
0.019,-3.522,-0.906,115.245,25.353,11.588,15.873,-5.857,-0.145,0.734,0.669,-3.784,-1.343,-1.953,86.667,16037.000,1.000
-6.876,-8.527,-8.897,72.470,0.266,-8.639,-5.139,-12.182,-0.147,0.734,0.669,-3.693,-2.136,-2.106,86.667,16038.000,1.000
-13.127,-12.262,-15.323,25.511,-23.801,-27.657,-24.745,-16.639,-0.146,0.734,0.669,-3.632,-2.686,-2.197,86.667,16039.000,1.000
-16.932,-13.687,-18.477,-16.647,-41.997,-41.482,-38.926,-18.668,-0.142,0.734,0.667,-3.540,-3.265,-2.411,86.667,16040.000,1.000
-15.113,-11.379,-16.235,-39.385,-47.097,-44.276,-41.441,-16.550,-0.141,0.735,0.670,-3.418,-3.754,-2.472,86.667,16041.000,1.000
-6.820,-5.621,-8.812,-34.141,-36.574,-34.238,-30.160,-10.093,-0.141,0.735,0.670,-3.235,-4.211,-2.502,86.667,16042.000,1.000
5.280,1.378,0.610,-6.142,-16.101,-16.410,-10.159,-1.889,-0.142,0.736,0.669,-3.052,-4.486,-2.533,86.667,16043.000,1.000
17.573,7.388,8.588,31.801,5.445,1.669,10.771,4.877,-0.141,0.737,0.673,-3.113,-4.944,-2.441,86.667,16044.000,1.000
28.280,11.822,14.264,71.604,23.613,16.437,28.807,9.387,-0.138,0.736,0.672,-3.082,-5.280,-2.411,86.667,16045.000,1.000
36.947,15.105,18.817,112.729,39.250,28.914,44.619,12.861,-0.135,0.731,0.670,-3.082,-5.615,-2.472,86.667,16046.000,1.000
41.970,16.840,22.408,153.225,52.421,39.357,57.882,15.436,-0.134,0.733,0.671,-2.991,-5.890,-2.289,86.667,16047.000,1.000
40.574,15.729,23.070,183.264,58.807,44.114,64.362,15.091,-0.133,0.734,0.669,-2.808,-6.165,-2.136,86.667,16048.000,1.000
31.920,11.525,19.080,191.482,53.923,39.278,60.018,10.309,-0.132,0.733,0.667,-2.625,-6.317,-2.106,86.667,16049.000,1.000
18.943,5.995,11.358,175.766,38.902,25.651,46.135,2.486,-0.130,0.733,0.665,-2.594,-6.531,-1.984,86.667,16050.000,1.000
6.157,1.396,2.760,144.257,19.708,8.188,28.378,-5.216,-0.129,0.735,0.662,-2.563,-6.561,-1.923,86.667,16051.000,1.000
-3.857,-1.519,-4.546,105.872,1.034,-8.930,11.153,-10.843,-0.127,0.735,0.663,-2.594,-6.683,-1.862,86.667,16052.000,1.000
-11.256,-3.602,-10.345,63.095,-16.995,-24.991,-5.396,-14.802,-0.126,0.734,0.663,-2.533,-6.561,-1.770,86.667,16053.000,1.000
-16.495,-5.547,-14.965,16.209,-35.199,-39.938,-22.023,-18.099,-0.126,0.732,0.662,-2.441,-6.561,-1.709,86.667,16054.000,1.000
-18.139,-6.579,-17.432,-27.824,-50.217,-50.492,-35.568,-20.195,-0.124,0.733,0.663,-2.502,-6.439,-1.587,86.667,16055.000,1.000
-14.123,-5.462,-16.140,-55.688,-55.666,-51.536,-40.014,-19.455,-0.121,0.733,0.663,-2.411,-6.226,-1.465,86.667,16056.000,1.000
-4.786,-2.415,-11.158,-58.451,-48.658,-41.616,-32.603,-15.446,-0.122,0.733,0.661,-2.289,-6.073,-1.404,86.667,16057.000,1.000
6.718,0.982,-4.683,-39.087,-32.998,-25.064,-16.931,-9.672,-0.120,0.733,0.658,-2.289,-5.981,-1.343,86.667,16058.000,1.000
17.338,3.793,1.165,-7.323,-14.760,-7.670,1.025,-3.729,-0.118,0.733,0.662,-2.167,-5.768,-1.312,86.667,16059.000,1.000
26.295,6.653,6.092,30.602,3.561,8.389,18.345,2.259,-0.118,0.734,0.662,-2.014,-5.615,-1.221,86.667,16060.000,1.000
33.706,10.282,10.623,73.474,22.463,23.831,34.895,8.528,-0.117,0.735,0.660,-1.953,-5.280,-1.221,86.667,16061.000,1.000
38.090,13.687,13.989,117.117,39.969,37.449,48.702,13.657,-0.116,0.737,0.659,-1.953,-5.005,-1.129,86.667,16062.000,1.000
36.585,14.599,14.053,149.695,49.720,44.438,54.431,14.865,-0.116,0.735,0.659,-1.984,-4.639,-1.160,86.667,16063.000,1.000
27.854,11.724,9.560,158.646,46.040,40.572,47.871,10.640,-0.116,0.736,0.662,-1.984,-4.272,-1.160,86.667,16064.000,1.000
14.105,6.097,1.869,141.584,29.850,26.970,30.885,2.559,-0.118,0.736,0.662,-2.045,-4.028,-1.221,86.667,16065.000,1.000
-0.382,-0.021,-6.092,107.542,7.918,9.340,10.323,-5.883,-0.115,0.737,0.658,-2.197,-3.754,-1.160,86.667,16066.000,1.000
-12.607,-5.293,-12.550,67.045,-13.690,-7.482,-8.174,-12.211,-0.115,0.735,0.656,-2.228,-3.479,-1.190,86.667,16067.000,1.000
-22.080,-9.826,-17.936,23.909,-33.617,-22.746,-23.869,-16.314,-0.113,0.733,0.656,-2.289,-3.113,-1.129,86.667,16068.000,1.000
-28.665,-13.526,-22.916,-21.102,-51.974,-36.823,-37.768,-18.784,-0.111,0.731,0.656,-2.289,-2.747,-1.068,86.667,16069.000,1.000
-30.601,-14.900,-26.244,-61.470,-65.296,-46.881,-47.641,-18.910,-0.110,0.732,0.655,-2.197,-2.289,-1.007,86.667,16070.000,1.000
-25.850,-12.252,-25.500,-84.939,-67.563,-47.865,-48.609,-15.233,-0.109,0.733,0.654,-2.075,-1.862,-0.824,86.667,16071.000,1.000
-15.038,-5.752,-19.734,-83.677,-56.340,-37.695,-38.601,-7.647,-0.110,0.734,0.654,-2.106,-1.526,-0.763,86.667,16072.000,1.000
-2.029,2.295,-10.728,-61.569,-35.994,-19.848,-21.327,1.836,-0.113,0.734,0.655,-2.045,-1.160,-0.824,86.667,16073.000,1.000
8.873,9.322,-1.438,-29.252,-13.692,-0.127,-2.848,10.600,-0.113,0.735,0.654,-2.014,-0.885,-0.702,86.667,16074.000,1.000
15.813,14.125,6.288,6.420,6.672,18.072,13.662,17.277,-0.115,0.734,0.654,-2.075,-0.488,-0.610,86.667,16075.000,1.000
18.999,16.403,11.910,44.731,24.910,34.037,28.181,21.671,-0.116,0.734,0.654,-2.106,-0.122,-0.519,86.667,16076.000,1.000
18.309,15.543,14.607,83.156,39.568,46.019,39.513,23.222,-0.115,0.733,0.654,-2.136,0.031,-0.519,86.667,16077.000,1.000
12.676,10.902,12.821,111.556,45.465,49.691,43.269,20.671,-0.118,0.733,0.654,-2.106,0.275,-0.488,86.667,16078.000,1.000
2.096,3.233,6.067,118.160,38.080,41.899,35.751,13.822,-0.119,0.735,0.652,-2.136,0.488,-0.366,86.667,16079.000,1.000
-10.837,-5.008,-3.442,100.485,19.237,24.939,18.758,4.891,-0.120,0.737,0.651,-2.289,0.610,-0.275,86.667,16080.000,1.000
-22.488,-11.370,-12.013,66.977,-3.784,5.226,-1.455,-2.880,-0.124,0.738,0.652,-2.258,0.793,-0.275,86.667,16081.000,1.000
-31.229,-15.347,-17.481,27.414,-24.898,-12.451,-20.039,-7.951,-0.126,0.739,0.655,-2.380,0.793,-0.153,86.667,16082.000,1.000
-38.050,-18.256,-20.467,-14.987,-43.198,-27.857,-36.631,-11.124,-0.127,0.740,0.653,-2.533,0.885,-0.183,86.667,16083.000,1.000
-43.737,-21.000,-22.362,-59.659,-59.462,-41.873,-51.884,-13.289,-0.130,0.741,0.656,-2.533,0.885,-0.275,86.667,16084.000,1.000
-46.420,-22.511,-22.812,-99.794,-70.712,-51.879,-62.828,-13.502,-0.130,0.743,0.653,-2.777,0.916,-0.153,86.667,16085.000,1.000
-43.216,-21.112,-20.328,-122.663,-71.251,-52.954,-64.212,-10.291,-0.130,0.741,0.654,-2.960,0.824,-0.061,86.667,16086.000,1.000
-34.006,-16.906,-14.877,-120.230,-59.179,-43.471,-54.398,-4.269,-0.131,0.742,0.652,-3.052,0.671,-0.122,86.667,16087.000,1.000
-22.304,-11.819,-8.462,-96.523,-39.354,-27.408,-37.825,1.881,-0.130,0.742,0.656,-3.235,0.732,-0.061,86.667,16088.000,1.000
-12.021,-7.313,-2.845,-62.352,-18.639,-10.225,-20.574,6.255,-0.129,0.742,0.656,-3.479,0.549,-0.031,86.667,16089.000,1.000
-4.228,-2.982,2.428,-24.409,0.405,6.300,-4.731,9.709,-0.132,0.742,0.657,-3.571,0.458,0.000,86.667,16090.000,1.000
1.996,1.912,8.795,17.002,19.136,23.414,11.085,14.146,-0.132,0.742,0.657,-3.815,0.336,-0.031,86.667,16091.000,1.000
6.249,6.099,15.639,59.455,36.680,40.011,26.101,19.185,-0.134,0.742,0.655,-3.998,0.336,0.000,86.667,16092.000,1.000
6.194,6.796,19.721,92.368,47.185,50.513,35.079,21.800,-0.135,0.741,0.658,-4.242,0.244,0.000,86.667,16093.000,1.000
0.654,2.770,18.178,103.328,44.926,49.587,32.980,19.603,-0.132,0.740,0.657,-4.242,0.000,-0.061,86.667,16094.000,1.000
-8.154,-4.058,11.298,89.184,30.531,37.663,20.458,13.394,-0.133,0.739,0.657,-4.272,-0.122,-0.031,86.667,16095.000,1.000
-16.461,-10.635,1.693,57.615,10.112,20.081,2.993,5.792,-0.132,0.737,0.660,-4.333,-0.275,0.000,86.667,16096.000,1.000
-22.393,-15.737,-8.516,17.917,-11.152,1.385,-14.829,-1.850,-0.133,0.735,0.660,-4.364,-0.336,0.092,86.667,16097.000,1.000
-26.667,-20.128,-18.656,-26.197,-32.265,-17.538,-32.198,-10.039,-0.131,0.735,0.661,-4.364,-0.488,0.122,86.667,16098.000,1.000
-29.949,-24.173,-27.840,-72.730,-52.672,-36.211,-48.747,-18.704,-0.132,0.735,0.663,-4.364,-0.671,0.092,86.667,16099.000,1.000
-30.687,-26.249,-33.580,-113.386,-67.498,-50.491,-60.316,-25.223,-0.133,0.735,0.660,-4.456,-0.702,0.061,86.667,16100.000,1.000
-26.633,-24.085,-33.111,-134.741,-69.535,-54.174,-60.698,-25.955,-0.131,0.735,0.661,-4.425,-0.732,0.122,86.667,16101.000,1.000
-18.124,-17.432,-26.141,-129.197,-56.477,-45.065,-48.036,-19.877,-0.130,0.734,0.659,-4.395,-0.854,0.153,86.667,16102.000,1.000
-8.487,-8.563,-15.375,-101.882,-33.894,-27.539,-27.464,-9.743,-0.130,0.735,0.660,-4.333,-0.916,0.183,86.667,16103.000,1.000
-0.780,0.037,-3.939,-64.455,-9.793,-8.033,-6.218,0.751,-0.128,0.735,0.660,-4.364,-1.007,0.214,86.667,16104.000,1.000
4.799,7.639,6.950,-24.011,12.181,10.521,12.532,9.898,-0.128,0.735,0.657,-4.242,-1.068,0.305,86.667,16105.000,1.000
9.512,14.361,17.147,18.807,32.512,28.406,29.489,17.445,-0.127,0.733,0.661,-4.272,-1.221,0.336,86.667,16106.000,1.000
12.835,18.983,25.076,61.207,49.885,44.177,43.800,22.171,-0.127,0.733,0.662,-4.272,-1.221,0.275,86.667,16107.000,1.000
12.069,19.000,27.455,92.276,58.515,52.464,50.479,21.579,-0.127,0.732,0.660,-4.211,-1.221,0.305,86.667,16108.000,1.000
5.615,13.251,22.313,99.497,53.111,48.247,44.737,14.576,-0.128,0.732,0.661,-4.150,-1.190,0.275,86.667,16109.000,1.000
-4.561,3.566,11.615,80.497,35.192,32.483,27.753,3.639,-0.127,0.732,0.665,-4.120,-1.282,0.214,86.667,16110.000,1.000
-14.538,-6.646,0.026,45.004,12.336,11.708,6.253,-6.708,-0.128,0.733,0.662,-4.120,-1.282,0.183,86.667,16111.000,1.000
-21.871,-14.774,-8.740,4.695,-8.721,-7.944,-13.592,-13.492,-0.127,0.729,0.662,-3.876,-1.343,-0.031,86.667,16112.000,1.000
-26.651,-19.791,-13.978,-35.882,-26.532,-24.820,-30.275,-16.872,-0.124,0.732,0.664,-3.906,-1.404,0.000,86.667,16113.000,1.000
-29.468,-21.384,-16.693,-76.263,-41.916,-39.253,-44.386,-18.256,-0.122,0.731,0.663,-3.906,-1.312,0.031,86.667,16114.000,1.000
-29.367,-19.055,-17.016,-110.782,-52.461,-48.830,-53.737,-17.718,-0.121,0.732,0.661,-3.784,-1.190,-0.061,86.667,16115.000,1.000
-24.725,-12.591,-13.826,-127.744,-52.849,-48.757,-53.640,-14.171,-0.122,0.730,0.662,-3.815,-1.221,-0.031,86.667,16116.000,1.000
-15.761,-3.216,-6.778,-119.479,-40.855,-37.161,-42.277,-7.667,-0.121,0.732,0.663,-3.632,-1.282,-0.122,86.667,16117.000,1.000
-5.067,6.521,2.388,-90.061,-20.704,-18.033,-23.643,-0.271,-0.118,0.731,0.665,-3.418,-1.160,-0.275,86.667,16118.000,1.000
4.672,14.454,11.119,-50.596,0.811,2.087,-3.948,5.800,-0.120,0.733,0.662,-3.418,-1.129,-0.458,86.667,16119.000,1.000
12.838,20.101,18.170,-8.504,20.374,19.469,13.839,10.183,-0.119,0.732,0.664,-3.357,-0.977,-0.671,86.667,16120.000,1.000
20.216,24.064,23.845,35.418,38.593,34.137,30.459,13.889,-0.118,0.730,0.663,-3.357,-1.068,-0.702,86.667,16121.000,1.000
26.460,26.428,28.196,79.200,54.820,45.918,45.713,17.054,-0.119,0.731,0.666,-3.204,-1.068,-0.854,86.667,16122.000,1.000
29.272,26.291,29.814,113.152,64.083,51.520,55.420,17.951,-0.121,0.732,0.666,-3.235,-0.916,-0.946,86.667,16123.000,1.000
26.688,23.080,27.051,125.055,61.008,47.087,54.593,14.711,-0.122,0.734,0.664,-3.265,-0.854,-1.129,86.667,16124.000,1.000
19.569,17.869,20.134,111.341,45.922,32.989,42.953,7.736,-0.123,0.732,0.664,-3.235,-0.946,-1.312,86.667,16125.000,1.000
10.931,12.717,11.278,79.887,25.026,14.237,25.512,-0.458,-0.125,0.732,0.664,-3.204,-0.977,-1.343,86.667,16126.000,1.000
2.969,8.702,2.581,40.993,4.282,-4.356,7.484,-7.948,-0.124,0.733,0.662,-3.113,-1.007,-1.495,86.667,16127.000,1.000
-4.064,5.463,-5.307,-1.226,-14.973,-21.716,-9.519,-14.865,-0.123,0.732,0.661,-3.143,-0.946,-1.587,86.667,16128.000,1.000
-9.703,2.986,-11.817,-45.694,-33.020,-37.834,-25.072,-21.415,-0.124,0.732,0.662,-3.143,-0.885,-1.648,86.667,16129.000,1.000
-11.508,2.786,-14.842,-85.219,-46.322,-49.229,-35.608,-25.645,-0.126,0.732,0.662,-3.052,-0.946,-1.740,86.667,16130.000,1.000
-6.904,6.325,-11.996,-106.296,-48.397,-50.095,-35.478,-24.726,-0.125,0.730,0.663,-2.991,-1.007,-1.770,86.667,16131.000,1.000
3.760,12.806,-3.375,-100.017,-36.499,-38.231,-22.727,-18.093,-0.125,0.730,0.662,-3.082,-0.977,-1.740,86.667,16132.000,1.000
17.066,19.476,7.947,-70.328,-15.178,-17.866,-1.925,-8.179,-0.127,0.731,0.663,-3.052,-0.977,-1.740,86.667,16133.000,1.000
29.374,23.997,18.357,-29.294,7.872,4.121,19.736,1.819,-0.128,0.732,0.665,-3.143,-0.946,-1.862,86.667,16134.000,1.000
39.129,25.976,26.141,14.115,28.201,23.575,38.161,10.202,-0.128,0.732,0.664,-3.113,-1.099,-1.740,86.667,16135.000,1.000
45.987,26.009,31.196,57.345,45.255,39.568,52.880,16.559,-0.129,0.732,0.663,-3.052,-1.099,-1.709,86.667,16136.000,1.000
48.380,23.778,32.960,96.917,57.542,50.493,62.708,19.974,-0.131,0.732,0.663,-3.082,-1.038,-1.801,86.667,16137.000,1.000
43.630,18.041,29.959,122.855,60.262,52.331,63.614,18.708,-0.133,0.732,0.663,-3.113,-1.068,-1.770,86.667,16138.000,1.000
31.200,8.764,21.757,124.585,49.650,42.353,52.507,12.203,-0.132,0.733,0.665,-3.113,-1.221,-1.709,86.667,16139.000,1.000
14.831,-1.540,10.512,101.607,28.453,23.564,32.120,2.810,-0.134,0.732,0.666,-3.204,-1.343,-1.648,86.667,16140.000,1.000
0.230,-9.436,-0.339,64.664,4.711,3.305,9.949,-5.553,-0.135,0.729,0.665,-2.991,-1.434,-1.587,86.667,16141.000,1.000
-9.402,-13.471,-9.021,25.054,-15.535,-13.260,-8.340,-10.808,-0.133,0.728,0.665,-2.960,-1.434,-1.556,86.667,16142.000,1.000
-14.770,-14.741,-16.162,-14.447,-32.454,-26.672,-22.833,-13.959,-0.134,0.729,0.665,-2.960,-1.495,-1.587,86.667,16143.000,1.000
-17.499,-14.561,-22.266,-55.422,-48.035,-39.091,-35.573,-16.449,-0.133,0.730,0.664,-2.838,-1.526,-1.465,86.667,16144.000,1.000
-17.112,-12.578,-25.597,-93.027,-59.498,-48.462,-44.635,-17.445,-0.133,0.730,0.664,-2.899,-1.587,-1.434,86.667,16145.000,1.000
-11.981,-7.820,-23.668,-114.630,-60.124,-49.299,-44.679,-14.874,-0.135,0.729,0.664,-2.716,-1.678,-1.434,86.667,16146.000,1.000
-2.447,-0.811,-16.382,-110.844,-46.680,-39.098,-33.353,-8.477,-0.135,0.729,0.663,-2.808,-1.770,-1.282,86.667,16147.000,1.000
8.579,6.502,-6.573,-84.648,-23.621,-21.704,-14.760,-0.558,-0.135,0.731,0.666,-2.594,-2.045,-1.221,86.667,16148.000,1.000
18.133,12.674,2.544,-47.297,1.031,-3.535,4.374,6.229,-0.135,0.731,0.666,-2.594,-2.014,-1.068,86.667,16149.000,1.000
25.372,17.782,9.744,-7.215,22.517,12.045,20.555,11.010,-0.133,0.732,0.667,-2.625,-2.045,-1.160,86.667,16150.000,1.000
30.874,22.326,15.457,33.822,40.671,25.424,34.182,14.338,-0.133,0.733,0.668,-2.563,-2.197,-1.038,86.667,16151.000,1.000
34.293,25.522,19.651,73.686,55.236,36.589,45.025,16.217,-0.132,0.732,0.666,-2.533,-2.136,-1.007,86.667,16152.000,1.000
33.701,25.411,20.954,103.419,62.540,42.391,49.390,15.424,-0.132,0.733,0.664,-2.686,-2.167,-0.793,86.667,16153.000,1.000
27.714,20.920,18.288,111.860,58.589,39.290,43.426,11.140,-0.130,0.732,0.664,-2.625,-2.197,-0.885,86.667,16154.000,1.000
17.544,13.192,12.601,96.075,44.214,27.792,28.067,4.455,-0.131,0.733,0.666,-2.655,-2.197,-0.977,86.667,16155.000,1.000
6.125,4.522,6.046,63.628,24.792,12.191,8.567,-2.565,-0.132,0.731,0.665,-2.563,-2.197,-0.946,86.667,16156.000,1.000
-4.548,-3.648,-0.306,23.692,4.614,-4.113,-10.871,-9.003,-0.130,0.731,0.667,-2.625,-2.106,-0.854,86.667,16157.000,1.000
-14.245,-11.183,-6.986,-20.598,-16.208,-21.024,-29.944,-15.370,-0.131,0.731,0.663,-2.594,-2.106,-0.885,86.667,16158.000,1.000
-22.374,-17.667,-13.988,-68.172,-37.755,-38.341,-48.613,-21.456,-0.131,0.729,0.660,-2.655,-1.984,-0.916,86.667,16159.000,1.000
-26.311,-21.203,-18.961,-111.090,-55.046,-51.697,-62.478,-24.775,-0.130,0.728,0.661,-2.594,-1.984,-0.916,86.667,16160.000,1.000
-23.307,-19.805,-18.708,-135.088,-59.930,-54.564,-64.629,-22.317,-0.129,0.730,0.661,-2.625,-1.953,-0.916,86.667,16161.000,1.000
-13.852,-13.842,-12.550,-130.916,-48.811,-44.589,-52.528,-13.834,-0.126,0.731,0.666,-2.533,-1.923,-0.916,86.667,16162.000,1.000
-1.940,-6.168,-3.331,-102.588,-26.624,-26.272,-31.285,-2.486,-0.122,0.731,0.663,-2.686,-1.831,-0.854,86.667,16163.000,1.000
8.327,0.417,5.247,-62.425,-2.095,-6.541,-9.005,8.197,-0.124,0.730,0.665,-2.655,-1.648,-0.854,86.667,16164.000,1.000
15.737,5.189,11.660,-19.474,19.776,11.346,10.047,17.279,-0.126,0.730,0.666,-2.686,-1.556,-0.885,86.667,16165.000,1.000
21.007,8.557,16.357,24.239,38.915,28.098,26.179,25.516,-0.125,0.730,0.665,-2.655,-1.373,-0.916,86.667,16166.000,1.000
23.582,9.796,19.044,66.165,54.584,43.069,38.971,32.069,-0.125,0.731,0.663,-2.716,-1.282,-1.007,86.667,16167.000,1.000
20.971,6.974,17.525,96.501,61.721,51.132,44.059,33.687,-0.127,0.728,0.665,-2.594,-1.129,-0.885,86.667,16168.000,1.000
11.801,-0.537,10.062,103.339,55.049,46.698,36.920,27.889,-0.126,0.727,0.661,-2.502,-1.190,-0.885,86.667,16169.000,1.000
-1.391,-10.260,-1.716,84.204,35.784,30.146,18.823,16.279,-0.126,0.727,0.665,-2.594,-1.068,-0.916,86.667,16170.000,1.000
-13.629,-18.237,-13.460,48.885,11.712,8.297,-3.148,3.655,-0.126,0.727,0.666,-2.563,-0.885,-0.977,86.667,16171.000,1.000
-21.889,-22.528,-21.937,9.427,-10.053,-11.971,-22.585,-6.294,-0.126,0.727,0.664,-2.563,-0.854,-0.824,86.667,16172.000,1.000
-26.846,-24.256,-27.165,-29.668,-28.291,-28.778,-38.408,-13.371,-0.127,0.729,0.663,-2.502,-0.702,-0.824,86.667,16173.000,1.000
-29.847,-25.013,-30.308,-68.642,-44.379,-42.867,-51.810,-18.680,-0.127,0.729,0.665,-2.594,-0.549,-0.885,86.667,16174.000,1.000
-29.788,-24.441,-30.934,-102.712,-56.060,-52.387,-60.680,-21.615,-0.127,0.729,0.667,-2.716,-0.519,-0.885,86.667,16175.000,1.000
-24.453,-21.151,-27.695,-120.612,-57.716,-53.017,-60.077,-20.434,-0.128,0.729,0.666,-2.686,-0.458,-0.885,86.667,16176.000,1.000
-14.111,-15.212,-20.978,-114.394,-46.879,-43.204,-48.191,-15.213,-0.129,0.728,0.664,-2.502,-0.397,-0.977,86.667,16177.000,1.000
-2.120,-8.565,-13.385,-87.461,-27.927,-26.942,-29.403,-8.643,-0.130,0.729,0.665,-2.441,-0.336,-0.824,86.667,16178.000,1.000
8.155,-3.035,-7.301,-50.414,-7.932,-10.194,-10.270,-3.487,-0.132,0.729,0.664,-2.350,-0.244,-0.793,86.667,16179.000,1.000
16.018,1.284,-2.652,-10.550,9.834,4.389,6.363,0.052,-0.131,0.729,0.666,-2.594,-0.305,-0.824,86.667,16180.000,1.000
22.476,5.079,2.201,31.063,26.290,17.713,21.592,3.669,-0.133,0.733,0.662,-2.625,-0.397,-0.854,86.667,16181.000,1.000
27.098,7.625,7.345,71.746,40.787,29.398,35.077,7.740,-0.133,0.732,0.667,-2.563,-0.519,-0.885,86.667,16182.000,1.000
27.270,6.793,10.258,100.946,47.971,35.139,42.023,9.986,-0.134,0.731,0.667,-2.777,-0.488,-0.824,86.667,16183.000,1.000
21.239,1.712,8.538,106.256,42.458,30.682,37.435,8.131,-0.136,0.733,0.666,-2.747,-0.519,-0.854,86.667,16184.000,1.000
10.788,-5.621,2.766,85.105,25.337,17.194,22.217,2.919,-0.134,0.733,0.665,-2.838,-0.488,-0.885,86.667,16185.000,1.000
-0.144,-12.057,-4.213,47.098,3.714,0.614,2.899,-2.675,-0.134,0.730,0.662,-2.960,-0.641,-0.763,86.667,16186.000,1.000
-8.994,-16.155,-10.452,3.938,-16.261,-14.393,-14.794,-6.881,-0.134,0.729,0.663,-3.052,-0.702,-0.854,86.667,16187.000,1.000
-15.829,-18.879,-16.409,-40.157,-34.107,-28.126,-30.322,-10.730,-0.135,0.729,0.666,-3.021,-0.824,-0.763,86.667,16188.000,1.000
-21.196,-21.628,-22.980,-85.568,-51.699,-42.501,-45.242,-15.832,-0.136,0.727,0.665,-2.869,-0.824,-0.702,86.667,16189.000,1.000
-23.927,-24.161,-28.862,-127.136,-66.886,-55.380,-57.411,-21.327,-0.136,0.729,0.667,-2.777,-0.916,-0.763,86.667,16190.000,1.000
-22.040,-24.855,-30.933,-152.181,-73.163,-60.588,-60.930,-24.033,-0.137,0.729,0.663,-2.716,-1.038,-0.702,86.667,16191.000,1.000
-15.390,-22.573,-27.190,-150.797,-66.120,-53.932,-52.179,-21.513,-0.134,0.732,0.663,-2.686,-1.129,-0.580,86.667,16192.000,1.000
-6.380,-17.671,-18.537,-125.337,-48.101,-37.430,-33.900,-14.101,-0.133,0.731,0.663,-2.655,-1.160,-0.519,86.667,16193.000,1.000
2.206,-11.324,-7.576,-86.880,-25.237,-16.600,-12.162,-3.797,-0.135,0.733,0.666,-2.686,-1.221,-0.397,86.667,16194.000,1.000
9.377,-4.536,3.554,-43.831,-1.358,4.897,9.327,7.716,-0.135,0.732,0.665,-2.655,-1.251,-0.305,86.667,16195.000,1.000
15.318,1.680,13.517,2.178,22.912,26.059,29.964,19.092,-0.134,0.732,0.667,-2.747,-1.373,-0.244,86.667,16196.000,1.000
19.105,5.608,20.600,49.034,45.524,44.813,47.987,28.038,-0.134,0.732,0.667,-2.991,-1.404,-0.092,86.667,16197.000,1.000
18.457,5.534,22.807,87.671,60.681,56.363,58.393,31.646,-0.134,0.729,0.668,-2.991,-1.312,0.031,86.667,16198.000,1.000
12.463,1.814,19.994,107.094,63.368,57.050,57.127,28.986,-0.135,0.726,0.672,-2.930,-1.404,0.000,86.667,16199.000,1.000
3.832,-2.350,15.336,105.417,55.394,49.179,46.620,22.945,-0.134,0.723,0.671,-2.960,-1.404,0.031,86.667,16200.000,1.000
-2.674,-3.072,13.484,92.652,44.780,40.120,35.083,18.407,-0.132,0.720,0.671,-2.869,-1.495,0.092,86.667,16201.000,1.000
-4.240,1.132,16.791,81.111,38.487,35.865,29.518,18.167,-0.133,0.720,0.670,-2.716,-1.526,0.153,86.667,16202.000,1.000
-1.702,8.676,23.797,75.343,37.204,36.642,30.642,21.104,-0.132,0.721,0.671,-2.625,-1.526,0.275,86.667,16203.000,1.000
2.869,17.109,31.456,73.948,38.193,39.573,35.424,24.483,-0.132,0.720,0.667,-2.533,-1.404,0.183,86.667,16204.000,1.000
8.956,25.108,37.845,79.031,41.336,43.961,42.815,27.056,-0.130,0.722,0.671,-2.472,-1.251,0.275,86.667,16205.000,1.000
16.984,31.990,42.203,98.916,49.886,51.934,54.778,29.201,-0.128,0.722,0.671,-2.472,-1.221,0.397,86.667,16206.000,1.000
25.810,36.396,43.576,140.343,65.673,64.520,72.255,30.946,-0.127,0.721,0.670,-2.502,-1.068,0.519,86.667,16207.000,1.000
32.602,36.870,41.135,201.468,86.306,79.587,92.750,31.443,-0.128,0.722,0.673,-2.594,-1.190,0.549,86.667,16208.000,1.000
35.953,34.149,36.396,275.692,108.748,95.067,113.521,30.957,-0.129,0.725,0.672,-2.502,-1.068,0.610,86.667,16209.000,1.000
38.323,32.049,34.062,360.934,134.295,113.031,135.975,32.379,-0.128,0.724,0.674,-2.441,-0.977,0.610,86.667,16210.000,1.000
43.952,34.871,39.036,460.566,167.107,138.044,164.201,39.306,-0.130,0.725,0.677,-2.563,-0.946,0.671,86.667,16211.000,1.000
53.910,43.321,51.795,573.340,206.920,170.489,198.211,52.089,-0.131,0.726,0.675,-2.502,-0.732,0.732,86.667,16212.000,1.000
64.040,53.368,67.105,685.752,245.215,203.062,230.378,66.367,-0.134,0.725,0.677,-2.533,-0.519,0.671,86.667,16213.000,1.000
68.500,59.422,77.873,778.632,270.678,225.560,250.499,76.131,-0.135,0.724,0.676,-2.563,-0.580,0.671,86.667,16214.000,1.000
64.878,58.403,80.157,841.687,278.270,232.943,254.223,78.132,-0.135,0.722,0.677,-2.350,-0.580,0.549,86.667,16215.000,1.000
55.326,50.956,74.598,879.357,271.858,227.871,245.522,73.254,-0.135,0.723,0.676,-2.319,-0.610,0.488,86.667,16216.000,1.000
43.582,39.920,64.261,902.555,258.577,216.166,231.461,64.462,-0.134,0.726,0.676,-2.197,-0.732,0.397,86.667,16217.000,1.000
32.311,28.542,52.351,918.101,242.863,201.890,216.506,54.474,-0.137,0.730,0.676,-1.953,-0.641,0.427,86.667,16218.000,1.000
23.304,19.841,41.886,928.318,226.853,187.489,202.530,45.495,-0.139,0.733,0.681,-2.014,-0.641,0.488,86.667,16219.000,1.000
18.330,16.050,35.769,937.400,213.851,176.239,191.790,39.747,-0.141,0.733,0.679,-1.953,-0.824,0.519,86.667,16220.000,1.000
17.923,17.183,35.184,951.605,207.356,171.000,186.352,38.337,-0.142,0.731,0.679,-2.075,-0.946,0.427,86.667,16221.000,1.000
19.581,20.267,37.754,970.666,205.839,169.817,183.911,39.354,-0.142,0.724,0.681,-2.075,-1.099,0.305,86.667,16222.000,1.000
18.671,20.974,38.447,982.381,200.997,164.963,176.609,38.298,-0.143,0.720,0.681,-1.984,-1.099,0.336,86.667,16223.000,1.000
11.931,16.627,33.193,970.024,183.601,148.491,156.429,31.458,-0.144,0.716,0.681,-1.587,-1.221,0.427,86.667,16224.000,1.000
-0.115,7.844,21.862,925.865,151.232,118.979,122.046,19.035,-0.146,0.713,0.680,-1.312,-1.343,0.488,86.667,16225.000,1.000
-14.583,-2.687,7.524,854.941,108.920,81.669,78.977,4.466,-0.149,0.711,0.680,-1.129,-1.495,0.488,86.667,16226.000,1.000
-29.847,-12.979,-7.199,764.753,61.951,41.676,32.595,-9.528,-0.147,0.713,0.681,-0.824,-1.617,0.641,86.667,16227.000,1.000
-47.029,-23.119,-22.611,654.405,9.893,-1.510,-17.411,-23.673,-0.147,0.716,0.683,-0.549,-1.770,0.793,86.667,16228.000,1.000
-67.685,-33.976,-40.597,516.809,-50.940,-51.748,-74.521,-40.527,-0.146,0.720,0.683,-0.305,-1.953,0.793,86.667,16229.000,1.000
-90.714,-45.223,-61.332,350.222,-120.422,-109.566,-138.641,-60.705,-0.146,0.722,0.684,-0.305,-2.075,1.129,86.667,16230.000,1.000
-112.456,-55.307,-82.279,163.651,-192.507,-169.779,-204.131,-81.711,-0.144,0.723,0.683,-0.305,-2.106,1.526,86.667,16231.000,1.000
-129.780,-63.276,-100.606,-30.385,-260.599,-226.083,-264.753,-100.507,-0.145,0.722,0.681,-0.092,-2.136,1.892,86.667,16232.000,1.000
-142.027,-69.705,-115.452,-224.868,-322.508,-275.828,-318.255,-115.918,-0.148,0.722,0.682,0.061,-2.258,2.045,86.667,16233.000,1.000
-149.508,-75.363,-127.125,-416.473,-378.114,-318.681,-364.439,-127.896,-0.150,0.722,0.684,0.214,-2.350,2.289,86.667,16234.000,1.000
-151.248,-79.532,-134.961,-596.626,-423.773,-352.159,-400.331,-135.466,-0.152,0.720,0.682,0.458,-2.502,2.441,86.667,16235.000,1.000
-145.501,-80.274,-137.140,-749.956,-452.340,-371.311,-420.208,-136.737,-0.155,0.720,0.680,0.641,-2.625,2.655,86.667,16236.000,1.000
-132.510,-76.549,-132.793,-864.610,-459.831,-373.674,-421.364,-131.219,-0.156,0.722,0.677,0.824,-2.838,2.899,86.667,16237.000,1.000
-115.633,-69.572,-123.559,-942.252,-450.312,-362.961,-408.239,-121.237,-0.156,0.725,0.681,0.977,-2.991,3.174,86.667,16238.000,1.000
-98.906,-61.583,-112.341,-995.173,-432.532,-346.255,-389.099,-110.167,-0.152,0.728,0.680,1.221,-3.143,3.448,86.667,16239.000,1.000
-83.980,-53.753,-100.822,-1034.223,-412.409,-328.015,-369.107,-99.669,-0.149,0.730,0.677,1.282,-3.265,3.662,86.667,16240.000,1.000
-70.405,-46.168,-89.111,-1062.797,-390.791,-308.503,-348.442,-89.599,-0.148,0.733,0.677,1.312,-3.357,3.845,86.667,16241.000,1.000
-58.639,-39.485,-77.798,-1083.177,-368.398,-288.163,-327.154,-80.380,-0.149,0.738,0.674,1.465,-3.510,4.059,86.667,16242.000,1.000
-51.224,-35.330,-69.089,-1104.117,-349.919,-271.169,-309.166,-74.084,-0.150,0.741,0.674,1.312,-3.540,4.272,86.667,16243.000,1.000
-50.249,-34.731,-65.128,-1137.340,-340.939,-262.720,-299.519,-72.528,-0.148,0.744,0.674,1.221,-3.540,4.547,86.667,16244.000,1.000
-54.470,-36.853,-65.676,-1187.030,-341.889,-263.595,-298.715,-74.931,-0.146,0.742,0.675,1.099,-3.510,4.669,86.667,16245.000,1.000
-59.958,-39.684,-68.163,-1246.267,-347.271,-269.214,-301.812,-78.274,-0.142,0.743,0.678,0.885,-3.571,4.822,86.667,16246.000,1.000
-63.535,-41.789,-70.124,-1304.941,-351.259,-274.282,-303.440,-79.958,-0.139,0.739,0.676,0.610,-3.571,4.974,86.667,16247.000,1.000
-64.731,-43.031,-71.061,-1358.596,-352.412,-276.953,-302.251,-79.545,-0.137,0.737,0.672,0.580,-3.387,5.157,86.667,16248.000,1.000
-63.966,-43.261,-71.389,-1406.861,-351.576,-277.483,-299.247,-77.657,-0.133,0.734,0.669,0.488,-3.418,5.371,86.667,16249.000,1.000
-59.895,-40.890,-70.055,-1444.908,-346.404,-273.958,-292.800,-73.797,-0.131,0.733,0.672,0.397,-3.235,5.554,86.667,16250.000,1.000
-50.247,-34.152,-64.708,-1461.916,-331.116,-262.050,-278.115,-66.428,-0.129,0.733,0.671,0.397,-3.113,5.768,86.667,16251.000,1.000
-35.516,-23.979,-54.897,-1450.976,-303.043,-240.221,-252.824,-55.651,-0.126,0.730,0.672,0.183,-2.808,6.073,86.667,16252.000,1.000
-19.955,-13.980,-43.531,-1417.766,-267.131,-213.094,-221.014,-44.356,-0.125,0.728,0.672,0.214,-2.533,6.287,86.667,16253.000,1.000
-7.587,-6.855,-33.842,-1375.447,-231.455,-187.260,-189.376,-35.328,-0.121,0.723,0.671,0.183,-2.136,6.531,86.667,16254.000,1.000
1.724,-1.850,-25.951,-1331.640,-199.258,-164.619,-160.353,-28.083,-0.120,0.720,0.667,0.214,-1.801,6.744,86.667,16255.000,1.000
10.937,3.618,-17.663,-1284.122,-167.892,-142.177,-131.467,-20.043,-0.115,0.720,0.666,0.458,-1.465,6.897,86.667,16256.000,1.000
21.218,10.377,-8.177,-1230.043,-135.560,-118.330,-101.371,-10.521,-0.114,0.722,0.664,0.610,-1.038,7.050,86.667,16257.000,1.000
30.011,16.271,0.135,-1175.530,-106.438,-97.044,-74.183,-2.267,-0.111,0.722,0.664,0.671,-0.580,7.233,86.667,16258.000,1.000
33.866,18.547,3.976,-1132.552,-87.280,-84.409,-56.286,1.258,-0.111,0.725,0.664,0.671,-0.214,7.385,86.667,16259.000,1.000
32.302,16.953,2.807,-1106.833,-79.713,-81.739,-49.472,-0.271,-0.112,0.727,0.660,0.702,0.183,7.538,86.667,16260.000,1.000
28.234,14.074,-0.281,-1092.073,-77.914,-83.571,-48.817,-3.324,-0.113,0.728,0.658,0.885,0.580,7.538,86.667,16261.000,1.000
24.691,12.460,-1.833,-1077.611,-74.756,-83.154,-47.965,-4.166,-0.116,0.730,0.659,0.885,0.854,7.507,86.667,16262.000,1.000
22.241,12.225,-1.323,-1058.854,-68.343,-78.480,-44.803,-2.545,-0.116,0.736,0.654,0.916,1.068,7.507,86.667,16263.000,1.000
20.692,12.410,0.077,-1036.256,-60.181,-70.954,-39.894,-0.332,-0.118,0.740,0.654,0.977,1.282,7.355,86.667,16264.000,1.000
21.977,13.596,2.894,-1005.676,-48.521,-59.491,-30.862,2.526,-0.121,0.742,0.650,0.885,1.434,7.172,86.667,16265.000,1.000
29.061,17.387,9.274,-955.938,-27.541,-39.589,-12.173,8.324,-0.120,0.743,0.652,0.732,1.556,7.080,86.667,16266.000,1.000
42.067,23.736,19.768,-878.719,6.000,-9.016,18.601,17.992,-0.123,0.742,0.653,0.702,1.587,6.866,86.667,16267.000,1.000
57.215,30.340,32.065,-777.998,47.929,28.160,56.650,29.168,-0.123,0.740,0.652,0.610,1.801,6.744,86.667,16268.000,1.000
70.141,34.886,43.298,-666.621,90.223,64.847,93.698,38.579,-0.123,0.739,0.651,0.580,1.740,6.622,86.667,16269.000,1.000
79.170,36.873,52.353,-554.436,128.188,97.033,124.993,45.137,-0.123,0.739,0.652,0.519,1.678,6.348,86.667,16270.000,1.000
84.855,36.975,59.346,-442.921,162.177,125.051,151.081,49.820,-0.122,0.739,0.647,0.397,1.617,6.165,86.667,16271.000,1.000
87.455,35.557,63.883,-331.748,192.772,149.532,173.351,53.349,-0.119,0.739,0.647,0.397,1.617,5.981,86.667,16272.000,1.000
86.205,32.484,64.930,-226.540,216.999,168.402,190.272,55.134,-0.118,0.739,0.646,0.336,1.648,5.981,86.667,16273.000,1.000
81.272,28.329,62.681,-136.026,231.244,179.326,199.563,54.788,-0.115,0.740,0.646,0.122,1.862,6.042,86.667,16274.000,1.000
75.474,25.125,59.946,-61.732,237.081,184.389,203.113,53.994,-0.114,0.743,0.646,0.183,1.831,5.829,86.667,16275.000,1.000
72.703,25.015,60.459,5.814,241.550,190.027,207.296,55.666,-0.114,0.745,0.645,0.305,1.831,5.890,86.667,16276.000,1.000
74.350,27.871,65.234,78.340,250.514,201.059,217.203,60.751,-0.113,0.745,0.642,0.061,1.892,5.890,86.667,16277.000,1.000
78.276,31.051,71.354,159.605,263.533,216.200,232.068,66.935,-0.113,0.746,0.642,-0.061,2.045,5.920,86.667,16278.000,1.000
82.125,32.337,75.370,247.370,277.349,231.440,248.372,71.603,-0.113,0.751,0.640,-0.183,2.136,5.920,86.667,16279.000,1.000
86.750,32.639,77.415,344.148,293.123,246.916,266.465,75.308,-0.116,0.756,0.641,-0.244,2.258,5.981,86.667,16280.000,1.000
94.980,34.801,80.777,460.400,317.014,267.743,291.275,80.984,-0.117,0.759,0.638,-0.397,2.197,5.890,86.667,16281.000,1.000
107.491,40.203,87.844,604.451,353.070,297.696,325.980,90.220,-0.120,0.759,0.639,-0.458,2.136,5.768,86.667,16282.000,1.000
121.300,47.580,97.763,771.785,397.702,334.153,367.057,101.626,-0.125,0.760,0.641,-0.610,2.045,5.768,86.667,16283.000,1.000
132.511,54.842,107.799,947.182,442.346,370.221,406.754,112.691,-0.125,0.761,0.642,-0.763,1.953,5.554,86.667,16284.000,1.000
139.602,60.994,115.879,1116.733,480.468,400.680,439.498,122.120,-0.126,0.759,0.636,-0.916,1.801,5.188,86.667,16285.000,1.000
143.352,66.024,121.483,1274.873,510.376,424.347,464.385,129.791,-0.126,0.755,0.639,-1.007,1.709,5.035,86.667,16286.000,1.000
144.167,69.551,124.605,1419.505,531.646,441.126,481.708,135.081,-0.127,0.753,0.640,-1.007,1.495,4.761,86.667,16287.000,1.000
140.937,70.445,124.792,1544.759,541.746,449.204,489.594,136.451,-0.128,0.748,0.642,-1.160,1.404,4.669,86.667,16288.000,1.000
132.926,68.006,121.730,1642.662,538.129,446.640,485.728,133.122,-0.129,0.745,0.644,-1.129,1.221,4.395,86.667,16289.000,1.000
121.643,62.936,116.187,1710.954,522.361,434.566,471.156,126.387,-0.130,0.743,0.647,-1.160,1.007,4.089,86.667,16290.000,1.000
109.532,56.344,109.214,1754.883,499.397,416.547,449.861,118.348,-0.131,0.744,0.646,-1.221,0.885,3.906,86.667,16291.000,1.000
96.751,48.032,100.299,1778.915,471.842,394.017,423.743,109.324,-0.130,0.746,0.649,-1.160,0.702,3.632,86.667,16292.000,1.000
80.601,36.873,87.494,1779.128,436.731,364.048,389.808,97.421,-0.132,0.744,0.653,-1.160,0.397,3.357,86.667,16293.000,1.000
58.971,23.189,70.060,1747.696,389.968,323.494,344.342,81.150,-0.131,0.740,0.653,-1.312,0.031,3.113,86.667,16294.000,1.000
33.742,9.984,50.531,1684.846,333.334,274.818,289.317,62.034,-0.128,0.736,0.650,-1.373,-0.061,3.021,86.667,16295.000,1.000
9.843,1.069,33.363,1602.593,274.842,225.750,232.567,43.860,-0.124,0.731,0.650,-1.465,-0.244,2.991,86.667,16296.000,1.000
-9.071,-2.195,21.204,1514.797,221.526,182.515,181.053,29.150,-0.122,0.726,0.653,-1.282,-0.397,2.899,86.667,16297.000,1.000
-23.188,-1.919,12.884,1426.056,173.676,144.889,135.504,17.100,-0.118,0.722,0.653,-0.885,-0.244,2.869,86.667,16298.000,1.000
-34.595,-1.302,5.437,1332.882,127.500,108.928,92.755,5.630,-0.118,0.721,0.652,-0.458,-0.336,2.960,86.667,16299.000,1.000
-44.218,-2.015,-2.736,1233.541,81.698,72.954,51.647,-5.632,-0.119,0.721,0.652,-0.183,-0.244,2.838,86.667,16300.000,1.000
-52.116,-4.467,-11.668,1131.556,38.545,38.456,13.828,-15.826,-0.121,0.725,0.652,-0.031,-0.183,2.869,86.667,16301.000,1.000
-60.086,-9.567,-21.904,1027.928,-1.524,5.471,-21.170,-25.519,-0.122,0.726,0.650,0.366,-0.092,2.930,86.667,16302.000,1.000
-71.939,-18.723,-35.123,914.006,-43.524,-30.222,-58.709,-37.179,-0.120,0.727,0.649,0.671,-0.061,2.930,86.667,16303.000,1.000
-90.129,-31.804,-52.102,776.681,-93.963,-73.536,-104.811,-52.623,-0.119,0.730,0.648,1.099,-0.092,2.838,86.667,16304.000,1.000
-112.623,-45.931,-70.765,611.097,-153.735,-124.261,-159.567,-70.557,-0.119,0.731,0.650,1.312,-0.183,2.838,86.667,16305.000,1.000
-134.106,-57.205,-87.230,425.954,-216.647,-176.356,-216.315,-87.298,-0.116,0.734,0.645,1.648,-0.122,2.838,86.667,16306.000,1.000
-150.386,-63.835,-99.140,235.493,-275.296,-223.465,-267.720,-100.087,-0.117,0.739,0.646,1.862,-0.092,2.838,86.667,16307.000,1.000
-160.755,-67.034,-107.244,49.020,-326.479,-263.601,-311.108,-109.013,-0.117,0.747,0.645,2.045,-0.061,2.716,86.667,16308.000,1.000
-165.845,-68.597,-113.085,-128.748,-369.353,-297.019,-346.555,-115.088,-0.116,0.754,0.645,2.106,0.031,2.625,86.667,16309.000,1.000
-164.488,-68.221,-115.826,-289.315,-400.134,-321.042,-371.443,-117.284,-0.115,0.759,0.644,2.106,-0.122,2.625,86.667,16310.000,1.000
-154.219,-63.896,-112.539,-418.481,-412.158,-329.902,-380.067,-112.956,-0.115,0.763,0.645,2.045,0.031,2.502,86.667,16311.000,1.000
-135.025,-54.875,-101.812,-506.029,-402.521,-320.651,-369.620,-101.493,-0.115,0.763,0.643,2.014,0.000,2.441,86.667,16312.000,1.000
-111.406,-43.477,-86.209,-555.258,-376.883,-297.687,-344.792,-86.384,-0.116,0.762,0.646,1.831,-0.031,2.258,86.667,16313.000,1.000
-89.489,-33.361,-70.471,-579.667,-345.566,-269.781,-314.474,-72.613,-0.119,0.759,0.646,1.678,-0.092,1.984,86.667,16314.000,1.000
-72.425,-26.376,-57.635,-590.399,-315.131,-242.937,-284.329,-62.368,-0.119,0.758,0.645,1.526,-0.153,1.587,86.667,16315.000,1.000
-59.472,-21.721,-47.510,-589.946,-285.491,-217.531,-254.336,-54.070,-0.119,0.758,0.649,1.373,-0.244,1.282,86.667,16316.000,1.000
-49.242,-18.046,-38.881,-578.874,-255.328,-192.463,-223.703,-45.539,-0.118,0.756,0.647,1.343,-0.183,1.038,86.667,16317.000,1.000
-42.388,-15.495,-32.083,-564.595,-227.694,-170.035,-195.739,-37.259,-0.117,0.754,0.650,1.343,-0.305,0.854,86.667,16318.000,1.000
-40.154,-14.961,-28.339,-558.636,-207.832,-154.591,-175.576,-31.659,-0.117,0.752,0.648,1.434,-0.305,0.641,86.667,16319.000,1.000
-41.235,-15.928,-27.213,-565.329,-196.410,-146.921,-163.900,-29.613,-0.112,0.751,0.649,1.312,-0.275,0.549,86.667,16320.000,1.000
-41.823,-16.337,-26.337,-577.254,-187.892,-142.526,-155.536,-29.088,-0.112,0.752,0.650,1.343,-0.153,0.397,86.667,16321.000,1.000
-39.084,-14.726,-23.902,-583.899,-176.545,-136.354,-145.024,-27.535,-0.115,0.750,0.653,1.312,-0.061,0.336,86.667,16322.000,1.000
-33.364,-11.533,-20.316,-582.253,-162.013,-127.517,-131.706,-24.377,-0.117,0.748,0.654,1.373,-0.092,0.305,86.667,16323.000,1.000
-26.259,-7.788,-16.681,-575.520,-147.070,-117.724,-117.685,-20.265,-0.119,0.747,0.656,1.343,-0.031,0.244,86.667,16324.000,1.000
-17.499,-3.295,-12.365,-562.724,-131.081,-106.118,-102.071,-14.711,-0.120,0.744,0.657,1.404,-0.122,0.397,86.667,16325.000,1.000
-5.221,2.922,-5.257,-534.772,-108.795,-88.350,-80.213,-5.963,-0.123,0.740,0.657,1.312,-0.122,0.397,86.667,16326.000,1.000
10.810,10.637,5.542,-483.299,-76.543,-61.500,-49.349,6.532,-0.126,0.740,0.658,1.434,-0.305,0.488,86.667,16327.000,1.000
27.635,17.879,18.137,-410.964,-37.663,-28.423,-13.152,20.418,-0.128,0.739,0.656,1.587,-0.397,0.580,86.667,16328.000,1.000
41.356,22.752,29.340,-329.948,0.029,4.102,20.921,31.909,-0.130,0.741,0.658,1.617,-0.610,0.641,86.667,16329.000,1.000
50.259,25.227,37.359,-251.059,31.340,31.104,48.188,38.974,-0.133,0.742,0.656,1.648,-0.885,0.793,86.667,16330.000,1.000
54.725,26.395,42.300,-178.144,56.013,51.688,68.704,42.234,-0.135,0.742,0.655,1.617,-1.251,0.854,86.667,16331.000,1.000
54.425,26.228,44.052,-114.453,73.865,65.413,82.584,42.511,-0.136,0.741,0.659,1.617,-1.343,0.885,86.667,16332.000,1.000
47.298,23.006,40.874,-70.084,80.576,68.814,86.108,38.721,-0.137,0.741,0.658,1.526,-1.556,1.007,86.667,16333.000,1.000
32.315,15.388,31.120,-57.710,71.048,58.025,74.858,29.405,-0.139,0.740,0.659,1.556,-1.953,1.099,86.667,16334.000,1.000
12.435,4.582,16.022,-80.440,46.283,34.430,50.027,15.771,-0.139,0.743,0.659,1.526,-2.167,1.160,86.667,16335.000,1.000
-6.700,-6.363,-0.570,-127.564,14.221,5.239,19.062,1.632,-0.137,0.745,0.658,1.526,-2.533,1.251,86.667,16336.000,1.000
-21.133,-15.332,-15.406,-184.160,-17.078,-22.424,-10.719,-9.967,-0.137,0.750,0.660,1.434,-2.930,1.343,86.667,16337.000,1.000
-30.766,-22.312,-27.754,-242.478,-45.165,-46.405,-37.393,-18.953,-0.137,0.753,0.658,1.343,-3.113,1.373,86.667,16338.000,1.000
-37.173,-27.717,-37.837,-301.230,-70.885,-67.482,-62.099,-26.562,-0.136,0.755,0.658,1.251,-3.448,1.373,86.667,16339.000,1.000
-40.436,-30.655,-44.505,-355.870,-92.120,-84.063,-83.116,-32.419,-0.134,0.757,0.656,1.068,-3.723,1.465,86.667,16340.000,1.000
-39.151,-29.757,-45.619,-395.160,-102.909,-91.506,-95.044,-34.440,-0.129,0.757,0.650,0.885,-3.998,1.526,86.667,16341.000,1.000
-33.133,-25.264,-40.675,-410.232,-99.708,-87.393,-94.537,-31.594,-0.126,0.756,0.644,0.854,-4.028,1.617,86.667,16342.000,1.000
-24.865,-19.407,-32.232,-404.766,-86.654,-75.779,-85.092,-25.819,-0.122,0.760,0.642,0.824,-4.272,1.953,86.667,16343.000,1.000
-17.668,-14.571,-24.251,-392.479,-72.579,-64.408,-74.401,-20.563,-0.117,0.765,0.644,0.916,-4.272,2.136,86.667,16344.000,1.000
-12.839,-11.409,-19.012,-384.196,-62.997,-57.800,-67.225,-17.608,-0.116,0.771,0.643,0.641,-4.150,2.228,86.667,16345.000,1.000
-9.403,-9.078,-16.133,-380.490,-56.914,-54.664,-62.615,-16.081,-0.113,0.775,0.642,0.397,-4.120,2.350,86.667,16346.000,1.000
-6.849,-7.279,-14.723,-378.309,-52.002,-52.531,-58.554,-14.801,-0.112,0.773,0.640,0.183,-3.998,2.533,86.667,16347.000,1.000
-6.902,-7.350,-15.443,-380.785,-50.298,-52.781,-56.955,-14.564,-0.110,0.770,0.639,0.031,-3.876,2.594,86.667,16348.000,1.000
-11.543,-10.566,-19.401,-395.858,-56.241,-59.036,-61.824,-17.015,-0.110,0.768,0.636,-0.061,-3.815,2.563,86.667,16349.000,1.000
-19.837,-15.777,-25.583,-425.891,-70.040,-71.454,-73.378,-21.780,-0.107,0.764,0.633,-0.092,-3.571,2.625,86.667,16350.000,1.000
-27.936,-19.818,-30.816,-462.969,-85.831,-85.117,-86.518,-26.173,-0.101,0.762,0.633,-0.092,-3.387,2.747,86.667,16351.000,1.000
-32.291,-20.444,-32.648,-496.166,-97.135,-94.623,-95.680,-28.034,-0.097,0.760,0.631,0.061,-3.052,2.869,86.667,16352.000,1.000
-31.955,-18.013,-31.357,-520.615,-102.157,-98.473,-99.356,-27.750,-0.093,0.762,0.626,0.153,-2.625,2.930,86.667,16353.000,1.000
-27.388,-13.962,-28.501,-536.234,-102.050,-97.621,-98.399,-26.810,-0.092,0.762,0.625,0.214,-2.289,3.052,86.667,16354.000,1.000
-18.093,-8.560,-24.190,-538.792,-95.243,-90.904,-91.051,-25.057,-0.092,0.766,0.625,0.336,-2.045,3.204,86.667,16355.000,1.000
-2.903,-1.013,-16.811,-517.344,-76.590,-74.453,-72.514,-20.442,-0.092,0.765,0.621,0.366,-1.678,3.204,86.667,16356.000,1.000
17.294,8.647,-5.474,-463.547,-43.355,-46.432,-40.601,-11.578,-0.091,0.763,0.622,0.336,-1.282,3.235,86.667,16357.000,1.000
38.438,18.783,8.340,-381.406,-0.067,-10.594,-0.014,0.453,-0.092,0.760,0.623,0.336,-1.007,3.235,86.667,16358.000,1.000
56.063,27.613,22.226,-284.233,44.740,26.599,41.108,13.441,-0.093,0.756,0.625,0.305,-0.763,3.052,86.667,16359.000,1.000
68.848,34.832,35.228,-182.253,86.036,61.789,78.383,26.458,-0.094,0.753,0.625,0.336,-0.458,3.021,86.667,16360.000,1.000
78.322,40.941,47.570,-77.079,124.203,95.554,112.762,39.635,-0.098,0.750,0.628,0.366,-0.214,2.930,86.667,16361.000,1.000
85.277,45.390,58.276,30.383,159.303,127.280,144.816,51.633,-0.095,0.747,0.627,0.458,0.000,2.899,86.667,16362.000,1.000
88.089,46.616,64.593,131.185,186.632,151.890,170.334,59.042,-0.096,0.740,0.625,0.458,0.153,2.930,86.667,16363.000,1.000
85.156,44.127,64.591,212.476,200.530,163.914,183.812,59.415,-0.096,0.739,0.627,0.580,0.305,2.808,86.667,16364.000,1.000
77.934,39.705,59.767,270.180,201.662,164.063,185.415,54.351,-0.096,0.739,0.631,0.610,0.397,2.716,86.667,16365.000,1.000
70.445,36.079,54.333,313.983,198.013,159.786,182.270,48.620,-0.094,0.735,0.629,0.732,0.549,2.686,86.667,16366.000,1.000
65.774,34.598,51.742,358.008,197.865,158.772,182.228,46.084,-0.092,0.736,0.628,0.854,0.732,2.594,86.667,16367.000,1.000
63.929,34.543,52.311,408.674,203.236,163.057,187.623,46.975,-0.091,0.738,0.631,0.854,0.885,2.594,86.667,16368.000,1.000
63.677,34.863,54.467,464.287,211.484,170.299,196.248,49.409,-0.090,0.739,0.631,0.916,1.038,2.716,86.667,16369.000,1.000
65.676,36.110,57.683,525.039,222.036,179.668,207.327,52.774,-0.088,0.743,0.629,0.824,1.251,2.899,86.667,16370.000,1.000
72.393,39.880,63.128,598.546,238.771,194.156,223.926,58.480,-0.091,0.743,0.630,0.702,1.221,2.838,86.667,16371.000,1.000
84.762,46.465,71.464,692.944,265.034,216.511,248.679,67.455,-0.091,0.746,0.630,0.519,1.312,2.930,86.667,16372.000,1.000
100.111,54.007,81.327,807.122,298.550,244.924,279.254,78.310,-0.088,0.747,0.628,0.336,1.343,2.991,86.667,16373.000,1.000
114.188,60.327,90.736,931.386,333.299,274.482,310.029,88.681,-0.088,0.746,0.628,0.275,1.465,3.082,86.667,16374.000,1.000
124.475,64.761,99.094,1056.968,365.340,301.879,337.348,97.511,-0.089,0.749,0.627,0.061,1.465,3.082,86.667,16375.000,1.000
130.632,67.588,106.705,1180.846,394.267,326.618,360.896,105.032,-0.087,0.754,0.627,-0.092,1.617,2.991,86.667,16376.000,1.000
132.282,68.262,112.560,1299.788,418.694,347.284,379.724,110.628,-0.083,0.757,0.624,-0.122,1.648,3.052,86.667,16377.000,1.000
128.092,65.246,113.891,1403.812,433.094,359.029,389.479,111.922,-0.083,0.758,0.626,-0.305,1.617,3.082,86.667,16378.000,1.000
117.936,58.000,108.880,1480.869,431.952,357.294,385.995,107.131,-0.083,0.759,0.629,-0.488,1.709,3.052,86.667,16379.000,1.000
104.974,48.563,99.295,1528.493,416.614,343.660,371.003,97.891,-0.084,0.760,0.630,-0.732,1.678,2.991,86.667,16380.000,1.000
94.081,40.393,89.443,1557.264,395.622,325.860,352.073,88.539,-0.083,0.759,0.628,-0.946,1.770,2.960,86.667,16381.000,1.000
87.896,35.554,82.418,1580.861,377.362,311.233,336.187,82.430,-0.082,0.757,0.627,-1.221,1.770,2.777,86.667,16382.000,1.000
85.006,33.415,77.869,1604.520,363.570,301.081,324.408,79.474,-0.082,0.756,0.627,-1.434,1.709,2.594,86.667,16383.000,1.000
82.500,32.286,73.708,1625.797,351.275,292.321,313.785,77.412,-0.083,0.756,0.632,-1.587,1.740,2.441,86.667,16384.000,1.000
79.871,31.938,69.614,1645.584,340.131,284.005,303.717,75.215,-0.082,0.759,0.630,-1.648,1.740,2.167,86.667,16385.000,1.000
79.319,33.735,67.843,1673.455,335.021,279.964,298.202,74.432,-0.082,0.762,0.632,-1.801,1.801,1.801,86.667,16386.000,1.000
82.098,38.206,70.212,1718.984,340.167,283.998,300.764,76.752,-0.083,0.763,0.631,-1.923,1.801,1.556,86.667,16387.000,1.000
85.880,43.365,75.180,1779.969,352.540,294.116,308.819,81.035,-0.082,0.764,0.633,-2.197,1.770,1.404,86.667,16388.000,1.000
86.739,46.204,78.847,1842.774,363.418,303.430,315.075,83.874,-0.084,0.764,0.635,-2.441,1.648,1.160,86.667,16389.000,1.000
83.005,45.461,78.522,1893.899,365.962,306.208,314.065,82.844,-0.086,0.763,0.634,-2.594,1.556,0.885,86.667,16390.000,1.000
75.704,41.823,74.129,1927.436,358.756,300.891,304.992,77.855,-0.088,0.760,0.633,-2.655,1.434,0.641,86.667,16391.000,1.000
65.286,35.591,66.057,1939.911,341.499,286.810,287.738,69.277,-0.089,0.762,0.634,-2.777,1.343,0.275,86.667,16392.000,1.000
49.831,25.711,53.351,1922.414,310.458,260.762,258.900,56.405,-0.090,0.762,0.633,-2.930,1.160,0.000,86.667,16393.000,1.000
27.544,11.631,35.081,1863.611,261.237,219.472,214.402,38.749,-0.093,0.765,0.636,-2.960,1.068,-0.336,86.667,16394.000,1.000
0.106,-4.843,12.730,1761.379,195.566,164.988,155.554,18.104,-0.096,0.767,0.641,-3.021,0.885,-0.671,86.667,16395.000,1.000
-27.678,-20.315,-9.918,1627.904,122.754,105.379,90.365,-1.793,-0.097,0.764,0.639,-3.204,0.610,-0.977,86.667,16396.000,1.000
-51.697,-32.386,-29.645,1480.534,52.912,48.738,27.589,-18.277,-0.099,0.763,0.644,-3.326,0.305,-1.251,86.667,16397.000,1.000
-71.163,-41.053,-46.111,1329.176,-10.097,-2.531,-29.497,-31.941,-0.101,0.764,0.644,-3.387,0.031,-1.678,86.667,16398.000,1.000
-87.010,-47.350,-60.628,1175.580,-67.409,-50.075,-81.929,-44.873,-0.103,0.761,0.644,-3.387,-0.183,-1.984,86.667,16399.000,1.000
-98.750,-51.328,-73.095,1023.264,-118.390,-93.422,-128.912,-57.098,-0.103,0.758,0.644,-3.174,-0.549,-2.197,86.667,16400.000,1.000
-104.429,-52.250,-81.413,882.486,-158.390,-128.074,-165.798,-66.036,-0.104,0.757,0.645,-3.143,-0.854,-2.350,86.667,16401.000,1.000
-103.729,-50.482,-84.218,762.426,-184.181,-150.545,-189.180,-69.696,-0.108,0.756,0.650,-3.113,-1.160,-2.472,86.667,16402.000,1.000
-99.844,-48.231,-83.300,660.736,-199.580,-163.625,-202.283,-69.500,-0.112,0.756,0.651,-3.021,-1.434,-2.563,86.667,16403.000,1.000
-97.209,-47.839,-82.370,564.826,-213.221,-174.605,-213.082,-69.107,-0.110,0.755,0.650,-2.838,-1.770,-2.594,86.667,16404.000,1.000
-97.780,-49.634,-83.608,463.936,-230.824,-188.445,-227.197,-70.843,-0.112,0.755,0.651,-2.625,-2.045,-2.533,86.667,16405.000,1.000
-100.668,-52.189,-86.471,356.243,-251.941,-204.802,-244.774,-74.392,-0.111,0.756,0.648,-2.502,-2.472,-2.441,86.667,16406.000,1.000
-105.235,-54.647,-89.977,242.638,-274.861,-222.266,-264.708,-78.929,-0.111,0.754,0.650,-2.380,-2.625,-2.411,86.667,16407.000,1.000
-112.943,-57.944,-94.888,117.752,-302.026,-243.106,-289.242,-85.236,-0.112,0.755,0.649,-2.167,-2.930,-2.136,86.667,16408.000,1.000
-125.228,-63.303,-102.703,-27.764,-337.967,-271.530,-321.994,-94.777,-0.112,0.754,0.650,-2.075,-3.235,-1.892,86.667,16409.000,1.000
-140.339,-70.105,-112.957,-195.745,-382.462,-307.656,-362.002,-107.109,-0.113,0.753,0.651,-1.770,-3.510,-1.648,86.667,16410.000,1.000
-153.695,-76.038,-122.843,-375.190,-428.506,-345.596,-402.290,-119.496,-0.111,0.755,0.647,-1.587,-3.754,-1.373,86.667,16411.000,1.000
-161.688,-79.220,-129.819,-550.791,-468.159,-378.442,-435.490,-129.325,-0.111,0.753,0.649,-1.343,-3.815,-1.068,86.667,16412.000,1.000
-164.135,-79.401,-133.517,-714.402,-498.541,-403.468,-459.294,-135.856,-0.109,0.753,0.646,-1.099,-3.937,-0.763,86.667,16413.000,1.000
-162.550,-76.969,-134.472,-865.028,-520.436,-421.091,-474.934,-139.145,-0.109,0.755,0.646,-0.885,-4.028,-0.366,86.667,16414.000,1.000
-157.041,-71.552,-131.865,-999.329,-532.556,-430.188,-481.733,-138.111,-0.107,0.758,0.642,-0.702,-4.150,-0.061,86.667,16415.000,1.000
-146.084,-62.306,-123.648,-1107.525,-530.214,-427.020,-475.858,-130.721,-0.106,0.760,0.642,-0.610,-4.242,0.183,86.667,16416.000,1.000
-129.404,-49.712,-109.269,-1181.756,-511.016,-409.878,-455.420,-116.548,-0.103,0.762,0.642,-0.397,-4.181,0.549,86.667,16417.000,1.000
-110.295,-36.738,-91.923,-1226.936,-480.606,-383.801,-425.581,-98.895,-0.101,0.761,0.641,-0.336,-4.150,0.824,86.667,16418.000,1.000
-94.216,-27.548,-77.242,-1259.596,-450.439,-358.732,-396.649,-83.522,-0.097,0.761,0.644,-0.427,-4.028,1.099,86.667,16419.000,1.000
-85.123,-24.883,-69.528,-1294.988,-429.347,-342.402,-376.661,-74.947,-0.097,0.759,0.643,-0.366,-3.906,1.404,86.667,16420.000,1.000
-83.729,-28.913,-69.619,-1337.984,-418.766,-336.112,-367.105,-74.335,-0.093,0.760,0.639,-0.366,-3.754,1.617,86.667,16421.000,1.000
-88.821,-38.051,-75.863,-1387.367,-416.075,-337.361,-365.744,-80.383,-0.091,0.757,0.641,-0.244,-3.540,1.862,86.667,16422.000,1.000
-98.698,-49.816,-85.728,-1444.765,-419.796,-344.222,-371.059,-90.725,-0.085,0.761,0.640,-0.244,-3.387,2.014,86.667,16423.000,1.000
-110.565,-60.891,-96.078,-1514.711,-429.483,-355.495,-382.044,-102.057,-0.085,0.761,0.638,-0.244,-3.082,2.167,86.667,16424.000,1.000
-119.782,-67.533,-103.156,-1596.251,-441.850,-367.828,-394.889,-110.203,-0.084,0.762,0.637,-0.336,-2.838,2.228,86.667,16425.000,1.000
-121.802,-67.457,-104.130,-1679.024,-450.336,-375.610,-402.938,-111.885,-0.081,0.761,0.638,-0.214,-2.533,2.472,86.667,16426.000,1.000
-115.648,-61.790,-99.393,-1750.939,-450.304,-375.296,-401.664,-107.263,-0.080,0.758,0.636,-0.336,-2.167,2.533,86.667,16427.000,1.000
-104.607,-54.456,-92.505,-1808.160,-443.228,-368.651,-392.554,-100.012,-0.077,0.755,0.635,-0.275,-1.740,2.594,86.667,16428.000,1.000
-92.802,-48.965,-86.873,-1854.083,-433.566,-359.821,-380.201,-93.919,-0.076,0.755,0.636,-0.214,-1.404,2.808,86.667,16429.000,1.000
-81.443,-45.729,-82.502,-1888.883,-421.862,-349.382,-365.814,-89.418,-0.074,0.753,0.634,-0.183,-0.946,2.747,86.667,16430.000,1.000
-68.844,-42.516,-76.430,-1904.255,-403.055,-332.977,-345.404,-83.800,-0.075,0.754,0.630,-0.183,-0.580,2.808,86.667,16431.000,1.000
-53.762,-37.248,-66.262,-1891.160,-372.460,-306.526,-315.066,-74.658,-0.074,0.757,0.632,-0.061,-0.153,2.655,86.667,16432.000,1.000
-37.936,-30.061,-52.875,-1851.100,-332.109,-271.743,-276.797,-62.675,-0.074,0.760,0.631,-0.092,0.183,2.625,86.667,16433.000,1.000
-24.756,-22.630,-39.515,-1796.379,-289.566,-235.192,-237.508,-50.802,-0.074,0.762,0.633,-0.244,0.671,2.472,86.667,16434.000,1.000
-15.763,-16.004,-28.579,-1738.954,-250.826,-202.243,-202.565,-41.028,-0.073,0.761,0.630,-0.427,1.129,2.563,86.667,16435.000,1.000
-9.662,-9.964,-19.999,-1682.539,-216.544,-173.717,-172.319,-32.953,-0.074,0.758,0.631,-0.610,1.343,2.411,86.667,16436.000,1.000
-5.109,-4.616,-12.943,-1627.486,-185.934,-148.984,-145.715,-25.760,-0.073,0.755,0.626,-0.610,1.770,2.319,86.667,16437.000,1.000
-3.104,-1.463,-8.004,-1579.691,-161.778,-130.192,-125.003,-20.365,-0.075,0.752,0.626,-0.763,1.984,2.136,86.667,16438.000,1.000
-5.308,-1.930,-6.513,-1549.263,-148.650,-120.945,-114.213,-18.500,-0.075,0.754,0.625,-0.824,2.441,2.228,86.667,16439.000,1.000
-10.729,-5.321,-8.207,-1539.686,-146.553,-121.049,-113.367,-20.119,-0.076,0.754,0.626,-0.946,2.686,2.197,86.667,16440.000,1.000
-15.684,-9.150,-10.936,-1542.224,-149.098,-125.016,-116.797,-22.919,-0.079,0.754,0.628,-0.916,2.991,2.106,86.667,16441.000,1.000
-17.184,-11.433,-12.837,-1543.507,-149.101,-126.797,-118.121,-24.585,-0.079,0.756,0.627,-1.068,3.235,1.923,86.667,16442.000,1.000
-15.093,-11.934,-13.746,-1536.483,-144.325,-124.504,-115.254,-24.574,-0.077,0.759,0.626,-1.129,3.540,1.892,86.667,16443.000,1.000
-10.504,-11.072,-13.961,-1520.866,-136.095,-119.059,-109.020,-23.187,-0.077,0.758,0.624,-1.251,3.784,1.892,86.667,16444.000,1.000
-3.180,-8.427,-12.269,-1494.045,-123.386,-109.220,-97.991,-19.621,-0.076,0.757,0.625,-1.587,3.967,1.923,86.667,16445.000,1.000
8.162,-3.128,-6.513,-1446.841,-101.328,-90.692,-77.605,-12.225,-0.076,0.754,0.620,-1.617,4.242,2.014,86.667,16446.000,1.000
23.204,4.415,3.597,-1371.475,-66.871,-61.197,-45.517,-0.895,-0.078,0.754,0.622,-1.617,4.395,2.075,86.667,16447.000,1.000
38.859,12.039,15.246,-1271.621,-23.953,-24.710,-6.022,11.793,-0.080,0.756,0.622,-1.709,4.700,2.136,86.667,16448.000,1.000
51.646,17.753,24.983,-1160.843,19.165,11.227,32.840,22.691,-0.085,0.760,0.620,-1.587,4.730,1.984,86.667,16449.000,1.000
60.876,21.750,32.089,-1050.848,57.327,42.149,66.252,31.106,-0.088,0.760,0.621,-1.709,4.791,1.862,86.667,16450.000,1.000
68.129,25.484,38.401,-944.754,90.923,68.705,94.714,38.652,-0.091,0.764,0.619,-1.862,4.761,1.862,86.667,16451.000,1.000
73.652,28.849,44.694,-843.389,120.506,91.733,118.955,45.929,-0.092,0.763,0.620,-1.984,4.639,1.678,86.667,16452.000,1.000
74.946,29.544,48.676,-754.034,141.866,107.935,135.416,50.664,-0.094,0.762,0.620,-2.197,4.608,1.617,86.667,16453.000,1.000
69.692,25.673,47.388,-687.874,149.085,112.610,139.059,50.054,-0.097,0.763,0.623,-2.228,4.547,1.526,86.667,16454.000,1.000
59.236,18.368,40.870,-648.379,141.986,105.926,130.104,44.359,-0.098,0.765,0.623,-2.411,4.395,1.373,86.667,16455.000,1.000
48.131,11.259,32.582,-625.524,128.262,94.497,115.892,37.269,-0.097,0.765,0.623,-2.686,4.303,1.251,86.667,16456.000,1.000
40.130,7.290,26.207,-603.838,117.132,85.954,105.130,32.521,-0.098,0.766,0.623,-2.869,4.089,1.221,86.667,16457.000,1.000
35.522,6.578,22.785,-574.490,112.277,83.074,101.498,30.857,-0.099,0.768,0.623,-2.960,3.967,1.038,86.667,16458.000,1.000
32.849,7.664,21.411,-536.877,112.397,84.290,103.990,30.807,-0.099,0.770,0.624,-3.143,3.754,1.068,86.667,16459.000,1.000
32.245,10.074,21.963,-489.816,117.326,88.971,112.067,31.737,-0.099,0.770,0.626,-3.387,3.510,0.916,86.667,16460.000,1.000
35.758,14.629,25.787,-426.186,130.599,99.841,127.821,34.977,-0.101,0.772,0.626,-3.479,3.357,0.824,86.667,16461.000,1.000
44.420,21.524,33.502,-339.304,154.898,119.273,152.300,41.799,-0.102,0.772,0.625,-3.723,3.143,0.732,86.667,16462.000,1.000
56.276,29.336,43.399,-232.432,186.980,144.904,181.623,51.307,-0.100,0.772,0.626,-3.937,3.021,0.549,86.667,16463.000,1.000
67.980,36.288,52.928,-117.859,219.577,171.007,209.100,61.206,-0.100,0.774,0.625,-4.120,2.899,0.519,86.667,16464.000,1.000
77.607,41.753,61.014,-5.972,247.985,193.824,231.189,70.023,-0.098,0.772,0.626,-4.395,2.686,0.488,86.667,16465.000,1.000
85.067,46.002,67.989,101.510,272.566,213.629,249.470,77.497,-0.098,0.772,0.626,-4.517,2.563,0.458,86.667,16466.000,1.000
90.068,48.817,73.576,205.723,294.248,231.071,266.069,83.029,-0.096,0.770,0.623,-4.608,2.563,0.397,86.667,16467.000,1.000
90.865,49.061,75.968,301.177,309.726,243.255,278.810,84.881,-0.097,0.770,0.625,-4.791,2.533,0.488,86.667,16468.000,1.000
86.036,46.130,73.635,376.750,313.565,245.558,282.860,81.756,-0.095,0.769,0.625,-4.944,2.380,0.458,86.667,16469.000,1.000
77.189,41.627,67.746,426.884,304.944,237.284,276.931,74.949,-0.095,0.766,0.629,-5.035,2.350,0.519,86.667,16470.000,1.000
68.515,38.534,61.679,458.166,289.863,223.513,265.584,67.831,-0.096,0.762,0.628,-5.035,2.380,0.549,86.667,16471.000,1.000
63.137,38.297,57.777,482.559,275.491,210.447,254.493,62.721,-0.095,0.759,0.630,-5.127,2.289,0.549,86.667,16472.000,1.000
60.799,39.521,55.523,506.806,264.216,200.455,245.382,59.172,-0.097,0.756,0.629,-4.944,2.228,0.580,86.667,16473.000,1.000
59.789,40.102,53.437,531.990,255.074,193.055,237.419,55.837,-0.098,0.756,0.627,-4.913,2.197,0.458,86.667,16474.000,1.000
60.297,40.045,52.005,562.222,249.652,189.621,232.397,53.304,-0.100,0.755,0.629,-4.730,2.197,0.519,86.667,16475.000,1.000
64.596,41.310,53.708,608.325,253.348,194.460,235.597,53.984,-0.101,0.757,0.636,-4.730,2.106,0.336,86.667,16476.000,1.000
73.665,45.061,59.997,679.125,269.372,209.948,250.164,59.039,-0.102,0.757,0.632,-4.700,1.892,0.214,86.667,16477.000,1.000
84.783,50.022,69.096,770.558,293.246,232.024,272.019,66.360,-0.102,0.757,0.631,-4.669,1.862,0.153,86.667,16478.000,1.000
93.442,53.861,77.521,867.163,315.611,252.582,292.385,72.468,-0.102,0.758,0.630,-4.700,1.862,0.031,86.667,16479.000,1.000
97.108,55.468,83.239,954.688,330.215,266.212,305.135,75.893,-0.103,0.756,0.631,-4.669,1.648,-0.031,86.667,16480.000,1.000
95.919,55.061,86.229,1027.866,336.845,272.715,309.681,77.454,-0.104,0.756,0.630,-4.639,1.495,-0.275,86.667,16481.000,1.000
90.038,52.298,86.101,1084.826,336.109,272.764,306.507,77.404,-0.104,0.756,0.632,-4.608,1.465,-0.275,86.667,16482.000,1.000
78.106,45.593,80.767,1118.327,324.327,263.588,292.665,73.704,-0.103,0.756,0.630,-4.578,1.465,-0.549,86.667,16483.000,1.000
59.304,34.153,68.528,1117.749,296.361,241.224,264.113,63.999,-0.102,0.754,0.626,-4.639,1.434,-0.702,86.667,16484.000,1.000
36.061,19.981,50.921,1080.145,252.819,206.338,221.834,48.719,-0.102,0.757,0.630,-4.608,1.312,-0.793,86.667,16485.000,1.000
13.156,6.649,32.215,1015.295,201.593,165.305,173.007,31.081,-0.100,0.756,0.634,-4.608,1.282,-0.854,86.667,16486.000,1.000
-6.045,-3.831,15.825,937.331,151.238,124.720,125.154,14.009,-0.101,0.756,0.633,-4.547,1.343,-0.885,86.667,16487.000,1.000
-21.312,-11.889,2.247,853.836,104.837,86.787,80.955,-1.657,-0.100,0.758,0.634,-4.578,1.251,-0.885,86.667,16488.000,1.000
-33.158,-18.068,-9.079,766.299,61.921,51.430,40.187,-15.502,-0.101,0.758,0.635,-4.486,1.190,-0.977,86.667,16489.000,1.000
-40.177,-21.156,-17.224,679.361,24.508,21.125,4.958,-25.608,-0.099,0.758,0.637,-4.425,1.251,-1.038,86.667,16490.000,1.000
-40.175,-19.580,-20.391,604.266,-1.932,0.890,-19.803,-29.690,-0.101,0.757,0.638,-4.486,1.282,-0.977,86.667,16491.000,1.000
-33.593,-14.101,-18.634,550.487,-14.269,-6.910,-31.545,-27.824,-0.102,0.760,0.638,-4.456,1.404,-1.068,86.667,16492.000,1.000
-24.548,-8.107,-14.857,515.874,-16.599,-6.218,-34.154,-23.116,-0.102,0.759,0.639,-4.517,1.556,-1.129,86.667,16493.000,1.000
-17.874,-4.891,-12.633,488.224,-17.482,-4.546,-35.281,-19.374,-0.101,0.760,0.637,-4.578,1.587,-1.099,86.667,16494.000,1.000
-15.461,-5.020,-13.202,457.025,-22.385,-6.668,-39.695,-18.193,-0.103,0.760,0.636,-4.730,1.648,-1.282,86.667,16495.000,1.000
-16.062,-6.766,-15.051,420.974,-30.464,-12.074,-46.570,-18.566,-0.103,0.760,0.636,-4.761,1.648,-1.312,86.667,16496.000,1.000
-18.474,-8.848,-16.679,382.359,-39.386,-19.045,-53.842,-19.452,-0.104,0.760,0.639,-4.761,1.740,-1.404,86.667,16497.000,1.000
-23.731,-11.906,-19.064,337.103,-51.234,-29.472,-63.469,-21.872,-0.106,0.760,0.641,-4.913,1.831,-1.617,86.667,16498.000,1.000
-33.335,-17.001,-24.446,275.326,-71.047,-47.378,-80.096,-27.554,-0.104,0.758,0.637,-5.005,1.801,-1.678,86.667,16499.000,1.000
-46.027,-23.454,-33.048,192.786,-99.804,-72.908,-104.728,-35.998,-0.105,0.759,0.640,-5.035,1.770,-1.770,86.667,16500.000,1.000
-57.812,-29.215,-42.330,98.260,-131.484,-100.189,-132.021,-44.260,-0.107,0.759,0.637,-5.035,1.770,-1.892,86.667,16501.000,1.000
-65.324,-33.104,-49.596,7.051,-158.196,-122.117,-154.772,-49.774,-0.108,0.759,0.641,-5.096,1.740,-1.953,86.667,16502.000,1.000
-68.009,-35.452,-54.068,-70.774,-176.396,-135.707,-169.481,-52.231,-0.109,0.757,0.641,-5.035,1.709,-2.045,86.667,16503.000,1.000
-66.626,-36.365,-55.941,-132.717,-186.443,-141.593,-176.164,-52.328,-0.110,0.758,0.640,-5.035,1.953,-2.167,86.667,16504.000,1.000
-60.643,-34.291,-54.262,-175.883,-187.226,-139.526,-173.825,-49.531,-0.110,0.757,0.641,-5.035,1.892,-2.380,86.667,16505.000,1.000
-48.280,-27.024,-46.751,-191.741,-174.096,-126.470,-158.702,-41.805,-0.112,0.758,0.638,-5.005,1.831,-2.411,86.667,16506.000,1.000
-29.452,-14.373,-32.306,-172.613,-143.911,-100.344,-128.611,-28.010,-0.112,0.757,0.642,-4.852,1.770,-2.441,86.667,16507.000,1.000
-7.754,0.538,-13.361,-122.171,-101.044,-64.741,-87.955,-10.282,-0.114,0.757,0.643,-4.974,1.770,-2.594,86.667,16508.000,1.000
11.718,13.333,5.268,-55.194,-55.733,-27.744,-45.968,6.958,-0.114,0.757,0.643,-5.005,1.617,-2.716,86.667,16509.000,1.000
26.403,21.820,20.092,14.429,-15.877,4.543,-9.442,20.647,-0.115,0.754,0.643,-4.913,1.648,-2.869,86.667,16510.000,1.000
37.135,26.859,30.772,82.398,17.624,31.660,21.179,30.857,-0.112,0.753,0.647,-4.852,1.526,-2.869,86.667,16511.000,1.000
44.947,29.845,38.045,149.028,46.611,55.091,47.775,38.546,-0.113,0.751,0.644,-4.700,1.526,-2.838,86.667,16512.000,1.000
48.426,30.445,41.135,209.152,69.202,72.865,68.681,42.725,-0.114,0.750,0.644,-4.517,1.526,-2.869,86.667,16513.000,1.000
45.409,27.589,38.562,252.135,80.460,80.431,79.375,41.340,-0.116,0.749,0.643,-4.364,1.556,-2.869,86.667,16514.000,1.000
36.699,21.919,31.088,272.716,79.136,76.757,78.692,34.626,-0.117,0.748,0.643,-4.181,1.526,-2.930,86.667,16515.000,1.000
26.567,15.962,22.409,278.011,70.910,67.166,71.777,26.125,-0.121,0.750,0.643,-4.089,1.434,-2.960,86.667,16516.000,1.000
19.084,11.733,16.326,280.848,63.474,58.920,65.566,19.815,-0.123,0.750,0.641,-3.998,1.373,-3.052,86.667,16517.000,1.000
14.934,9.076,13.822,287.965,59.868,55.123,62.740,16.959,-0.122,0.750,0.642,-3.906,1.190,-3.021,86.667,16518.000,1.000
12.772,7.037,13.704,298.460,58.822,54.656,62.093,16.560,-0.122,0.748,0.639,-3.845,1.007,-3.113,86.667,16519.000,1.000
12.848,6.160,15.575,313.229,60.877,57.408,64.084,18.274,-0.123,0.748,0.641,-3.662,0.916,-3.143,86.667,16520.000,1.000
17.259,8.023,20.504,340.358,70.566,66.456,72.756,23.196,-0.124,0.749,0.637,-3.632,0.824,-3.021,86.667,16521.000,1.000
26.234,12.505,28.413,387.304,90.661,83.442,90.523,31.165,-0.127,0.749,0.638,-3.357,0.702,-3.052,86.667,16522.000,1.000
36.041,16.981,36.441,449.933,116.416,103.890,113.089,38.936,-0.128,0.749,0.639,-3.235,0.366,-2.991,86.667,16523.000,1.000
42.018,18.981,41.173,513.730,138.391,119.915,132.087,42.651,-0.131,0.750,0.640,-3.143,0.244,-3.113,86.667,16524.000,1.000
42.925,18.763,41.886,566.292,150.765,127.406,142.471,41.687,-0.134,0.750,0.639,-3.143,-0.031,-3.296,86.667,16525.000,1.000
40.999,18.399,40.485,605.228,154.729,128.460,145.392,38.827,-0.136,0.750,0.637,-3.204,-0.305,-3.448,86.667,16526.000,1.000
37.965,18.675,38.401,632.457,153.389,126.419,143.582,36.641,-0.136,0.751,0.639,-3.265,-0.580,-3.540,86.667,16527.000,1.000
32.394,17.758,34.528,644.431,145.696,120.444,136.003,34.565,-0.137,0.753,0.638,-3.265,-0.824,-3.693,86.667,16528.000,1.000
21.741,13.313,26.781,632.636,127.617,106.583,119.013,29.953,-0.137,0.752,0.641,-3.204,-0.977,-3.876,86.667,16529.000,1.000
6.381,5.521,15.358,594.389,98.949,83.776,92.492,21.615,-0.136,0.753,0.644,-3.296,-1.373,-3.845,86.667,16530.000,1.000
-9.675,-2.879,3.358,539.305,66.264,56.724,62.432,11.377,-0.138,0.752,0.643,-3.387,-1.556,-3.845,86.667,16531.000,1.000
-22.399,-9.604,-6.184,481.929,37.437,31.676,35.985,1.860,-0.139,0.751,0.638,-3.357,-1.862,-3.906,86.667,16532.000,1.000
-30.819,-14.633,-12.739,430.043,15.099,11.161,15.602,-5.947,-0.139,0.753,0.636,-3.387,-2.075,-4.028,86.667,16533.000,1.000
-35.728,-18.505,-17.088,383.927,-2.251,-5.110,0.072,-11.868,-0.136,0.756,0.638,-3.296,-2.350,-4.089,86.667,16534.000,1.000
-36.638,-20.074,-18.796,345.885,-13.953,-15.415,-10.005,-14.417,-0.137,0.757,0.640,-3.448,-2.563,-4.059,86.667,16535.000,1.000
-31.663,-17.244,-16.131,325.220,-15.227,-15.180,-10.692,-11.270,-0.139,0.756,0.640,-3.418,-2.686,-3.876,86.667,16536.000,1.000
-20.706,-9.766,-8.552,330.362,-2.880,-2.284,0.223,-2.299,-0.140,0.757,0.638,-3.540,-2.777,-3.906,86.667,16537.000,1.000
-7.549,-0.433,1.486,357.561,18.606,18.134,18.139,8.788,-0.138,0.756,0.637,-3.693,-2.869,-3.815,86.667,16538.000,1.000
2.582,6.976,10.037,391.537,39.237,36.463,33.966,16.859,-0.138,0.757,0.637,-3.754,-3.052,-3.632,86.667,16539.000,1.000
7.356,10.548,14.825,418.470,51.948,46.481,41.870,19.432,-0.137,0.755,0.636,-3.784,-3.082,-3.540,86.667,16540.000,1.000
8.114,10.656,16.156,435.019,56.828,48.795,42.770,17.854,-0.139,0.756,0.638,-3.815,-3.204,-3.418,86.667,16541.000,1.000
6.448,8.054,14.812,442.691,56.445,46.238,39.556,14.565,-0.139,0.754,0.637,-3.784,-3.204,-3.418,86.667,16542.000,1.000
1.557,2.539,10.217,437.300,49.577,38.241,31.184,10.091,-0.138,0.755,0.635,-3.845,-3.357,-3.418,86.667,16543.000,1.000
-8.148,-6.065,1.408,409.314,32.208,21.788,13.813,3.284,-0.137,0.753,0.635,-3.967,-3.448,-3.113,86.667,16544.000,1.000
-21.633,-16.117,-10.583,355.047,4.201,-2.932,-12.909,-6.019,-0.139,0.753,0.632,-4.028,-3.448,-3.174,86.667,16545.000,1.000
-34.759,-24.363,-22.347,283.563,-27.782,-30.256,-43.153,-15.757,-0.138,0.751,0.634,-4.120,-3.479,-3.113,86.667,16546.000,1.000
-43.538,-28.478,-30.632,210.028,-55.396,-53.330,-69.431,-23.471,-0.138,0.752,0.633,-4.089,-3.571,-3.021,86.667,16547.000,1.000
-47.116,-28.880,-34.771,144.028,-75.260,-69.463,-88.484,-28.493,-0.135,0.752,0.632,-4.089,-3.601,-3.021,86.667,16548.000,1.000
-46.905,-27.354,-35.924,87.235,-88.790,-79.910,-101.213,-31.518,-0.135,0.754,0.633,-4.242,-3.510,-2.960,86.667,16549.000,1.000
-43.522,-24.427,-34.396,41.584,-96.247,-84.959,-107.613,-32.332,-0.135,0.755,0.635,-4.486,-3.479,-2.838,86.667,16550.000,1.000
-36.172,-19.241,-29.041,14.623,-94.035,-81.756,-104.609,-29.271,-0.131,0.756,0.635,-4.486,-3.357,-2.808,86.667,16551.000,1.000
-25.396,-12.033,-19.746,12.919,-79.613,-68.498,-90.467,-21.698,-0.131,0.756,0.633,-4.608,-3.265,-2.655,86.667,16552.000,1.000
-14.754,-5.335,-9.262,32.096,-57.218,-49.155,-69.546,-12.136,-0.131,0.757,0.636,-4.730,-3.174,-2.686,86.667,16553.000,1.000
-8.206,-1.834,-1.376,57.875,-35.908,-31.533,-50.149,-4.711,-0.129,0.754,0.637,-4.883,-2.991,-2.625,86.667,16554.000,1.000
-6.315,-1.714,2.438,77.766,-21.908,-20.633,-37.682,-1.569,-0.129,0.755,0.642,-4.913,-2.869,-2.441,86.667,16555.000,1.000
-6.341,-2.967,3.625,88.622,-15.023,-15.789,-31.744,-1.726,-0.128,0.756,0.640,-5.035,-2.716,-2.441,86.667,16556.000,1.000
-6.188,-4.095,3.752,91.201,-13.246,-14.868,-30.407,-3.520,-0.130,0.755,0.638,-5.188,-2.411,-2.380,86.667,16557.000,1.000
-7.166,-5.722,2.063,80.808,-18.431,-19.227,-35.162,-7.064,-0.129,0.754,0.637,-5.402,-2.228,-2.258,86.667,16558.000,1.000
-12.064,-9.174,-3.360,48.176,-34.772,-32.344,-49.394,-13.436,-0.130,0.754,0.642,-5.554,-2.106,-2.258,86.667,16559.000,1.000
-21.166,-14.090,-12.466,-9.653,-62.089,-54.149,-72.520,-22.198,-0.131,0.754,0.642,-5.646,-1.892,-2.167,86.667,16560.000,1.000
-31.512,-18.459,-22.550,-83.004,-93.392,-79.128,-98.178,-31.076,-0.129,0.752,0.641,-5.737,-1.678,-2.258,86.667,16561.000,1.000
-40.065,-21.058,-31.017,-156.880,-120.553,-101.029,-119.392,-38.297,-0.128,0.752,0.645,-5.859,-1.434,-2.228,86.667,16562.000,1.000
-46.123,-22.711,-37.630,-222.671,-140.735,-117.859,-134.014,-44.063,-0.128,0.750,0.643,-6.012,-1.221,-2.075,86.667,16563.000,1.000
-49.893,-24.487,-43.091,-279.455,-155.340,-130.610,-143.493,-48.937,-0.128,0.750,0.647,-6.012,-0.854,-2.014,86.667,16564.000,1.000
-49.976,-25.547,-46.322,-324.928,-163.772,-138.099,-147.379,-51.530,-0.127,0.750,0.648,-6.104,-0.549,-1.831,86.667,16565.000,1.000
-43.970,-23.893,-44.714,-350.172,-161.308,-135.637,-141.603,-49.108,-0.126,0.752,0.652,-6.195,-0.336,-1.740,86.667,16566.000,1.000
-31.868,-19.130,-37.408,-347.063,-144.641,-120.288,-123.511,-40.858,-0.127,0.752,0.655,-6.317,-0.122,-1.648,86.667,16567.000,1.000
-17.766,-13.586,-27.434,-319.656,-118.095,-96.426,-97.388,-29.930,-0.128,0.750,0.656,-6.378,0.061,-1.465,86.667,16568.000,1.000
-7.072,-10.199,-19.611,-283.950,-91.754,-73.703,-72.621,-21.265,-0.128,0.751,0.654,-6.378,0.336,-1.312,86.667,16569.000,1.000
-2.112,-9.711,-16.339,-254.900,-73.027,-58.859,-55.947,-17.327,-0.130,0.747,0.653,-6.287,0.580,-1.129,86.667,16570.000,1.000
-1.313,-10.549,-16.222,-236.464,-62.081,-51.305,-47.224,-16.785,-0.129,0.747,0.652,-6.317,0.854,-0.946,86.667,16571.000,1.000
-2.467,-11.181,-16.842,-226.063,-56.199,-47.410,-43.287,-17.359,-0.130,0.747,0.656,-6.348,1.129,-0.793,86.667,16572.000,1.000
-5.611,-11.804,-17.872,-225.414,-56.140,-46.971,-43.883,-18.771,-0.129,0.746,0.657,-6.226,1.282,-0.519,86.667,16573.000,1.000
-11.974,-13.423,-20.780,-242.085,-65.515,-53.293,-51.695,-22.141,-0.131,0.744,0.657,-6.165,1.495,-0.366,86.667,16574.000,1.000
-20.809,-15.842,-25.995,-279.536,-84.202,-67.349,-66.948,-27.211,-0.135,0.744,0.656,-6.012,1.801,-0.244,86.667,16575.000,1.000
-28.755,-17.537,-31.672,-329.679,-105.433,-84.497,-84.552,-31.726,-0.136,0.743,0.656,-5.920,2.014,-0.061,86.667,16576.000,1.000
-32.778,-17.518,-35.668,-378.652,-121.189,-98.409,-98.151,-33.970,-0.135,0.743,0.657,-5.768,2.106,0.061,86.667,16577.000,1.000
-32.624,-16.332,-37.661,-418.183,-128.885,-106.676,-105.521,-34.659,-0.135,0.740,0.658,-5.676,2.350,0.214,86.667,16578.000,1.000
-29.572,-14.679,-38.339,-447.763,-130.779,-110.582,-108.120,-35.341,-0.136,0.742,0.657,-5.676,2.411,0.305,86.667,16579.000,1.000
-23.583,-11.708,-37.112,-466.299,-127.746,-110.117,-106.028,-35.503,-0.136,0.741,0.656,-5.493,2.533,0.366,86.667,16580.000,1.000
-13.165,-5.693,-31.988,-466.485,-116.496,-101.865,-95.884,-32.478,-0.136,0.741,0.659,-5.402,2.533,0.519,86.667,16581.000,1.000
1.625,3.480,-22.216,-441.086,-94.290,-83.219,-75.074,-24.608,-0.136,0.740,0.658,-5.280,2.625,0.580,86.667,16582.000,1.000
17.279,13.259,-10.292,-393.499,-64.771,-57.445,-46.826,-13.862,-0.137,0.738,0.658,-5.005,2.625,0.610,86.667,16583.000,1.000
29.067,20.515,-0.370,-337.994,-36.538,-32.453,-19.099,-4.419,-0.137,0.739,0.658,-4.822,2.655,0.763,86.667,16584.000,1.000
34.941,24.344,5.413,-288.083,-15.549,-14.032,2.033,1.384,-0.138,0.741,0.658,-4.547,2.747,0.732,86.667,16585.000,1.000
36.227,25.925,8.125,-247.618,-1.183,-2.054,16.185,4.661,-0.136,0.743,0.657,-4.425,2.777,0.885,86.667,16586.000,1.000
34.548,25.875,9.423,-215.313,9.151,5.770,25.052,7.230,-0.139,0.744,0.657,-4.242,2.808,0.977,86.667,16587.000,1.000
29.513,23.046,8.931,-194.649,13.872,8.540,27.251,8.665,-0.139,0.744,0.656,-4.150,2.777,1.099,86.667,16588.000,1.000
20.375,16.479,5.151,-194.304,8.439,2.932,19.337,7.190,-0.138,0.744,0.655,-4.028,2.716,1.099,86.667,16589.000,1.000
9.215,8.007,-1.458,-217.777,-7.593,-11.062,1.755,2.938,-0.136,0.742,0.657,-3.967,2.655,1.160,86.667,16590.000,1.000
0.745,1.743,-7.575,-256.105,-27.421,-27.570,-18.721,-1.250,-0.136,0.744,0.657,-3.906,2.747,1.160,86.667,16591.000,1.000
-1.888,0.335,-10.150,-294.231,-42.696,-39.711,-34.264,-2.982,-0.135,0.744,0.660,-3.906,2.716,1.221,86.667,16592.000,1.000
-0.050,2.529,-9.628,-323.277,-50.973,-45.798,-42.584,-3.163,-0.135,0.744,0.661,-3.937,2.686,1.282,86.667,16593.000,1.000
2.794,5.310,-8.654,-343.126,-55.177,-48.624,-46.378,-4.341,-0.135,0.741,0.657,-3.906,2.594,1.343,86.667,16594.000,1.000
5.643,7.602,-8.034,-353.592,-56.460,-49.209,-46.959,-6.729,-0.134,0.742,0.655,-3.845,2.594,1.434,86.667,16595.000,1.000
10.581,10.674,-5.598,-347.957,-50.711,-43.960,-41.048,-7.434,-0.134,0.743,0.655,-3.723,2.563,1.373,86.667,16596.000,1.000
18.976,15.314,0.690,-318.827,-33.648,-29.251,-25.155,-3.845,-0.135,0.743,0.654,-3.723,2.594,1.404,86.667,16597.000,1.000
28.597,19.979,9.777,-268.791,-7.544,-7.152,-1.514,3.351,-0.135,0.743,0.657,-3.693,2.472,1.373,86.667,16598.000,1.000
35.435,22.248,18.406,-211.048,19.494,15.368,22.588,11.095,-0.135,0.743,0.659,-3.632,2.563,1.434,86.667,16599.000,1.000
37.723,21.418,24.233,-158.460,40.718,32.637,41.218,17.103,-0.135,0.745,0.660,-3.601,2.472,1.495,86.667,16600.000,1.000
36.948,18.784,27.140,-115.089,55.072,43.847,53.494,21.172,-0.134,0.743,0.656,-3.601,2.411,1.404,86.667,16601.000,1.000
34.801,15.460,27.551,-80.409,63.796,50.100,60.358,23.494,-0.135,0.744,0.656,-3.510,2.380,1.465,86.667,16602.000,1.000
30.349,10.811,24.445,-58.796,64.979,49.781,59.837,22.727,-0.136,0.741,0.656,-3.571,2.380,1.465,86.667,16603.000,1.000
21.368,3.719,16.240,-59.632,54.315,39.234,48.126,16.892,-0.135,0.740,0.658,-3.448,2.350,1.465,86.667,16604.000,1.000
8.200,-4.853,3.946,-86.253,31.787,18.614,25.822,6.548,-0.134,0.740,0.654,-3.479,2.289,1.404,86.667,16605.000,1.000
-5.160,-11.681,-7.960,-128.318,5.030,-5.101,0.663,-4.168,-0.135,0.740,0.653,-3.510,2.197,1.373,86.667,16606.000,1.000
-14.556,-14.228,-15.130,-168.978,-16.325,-23.179,-18.136,-10.965,-0.135,0.742,0.653,-3.448,2.197,1.312,86.667,16607.000,1.000
-19.155,-13.017,-17.066,-198.330,-28.492,-32.305,-27.294,-13.119,-0.136,0.741,0.656,-3.448,2.228,1.160,86.667,16608.000,1.000
-20.444,-10.326,-16.146,-216.301,-33.568,-34.763,-29.410,-12.622,-0.134,0.740,0.656,-3.357,2.167,1.129,86.667,16609.000,1.000
-18.767,-7.286,-13.794,-223.347,-32.892,-32.447,-26.589,-10.505,-0.135,0.738,0.656,-3.235,2.106,1.068,86.667,16610.000,1.000
-12.637,-3.324,-9.030,-213.487,-23.542,-23.544,-16.893,-5.648,-0.135,0.739,0.655,-3.174,2.106,1.160,86.667,16611.000,1.000
-1.685,1.809,-0.741,-179.892,-2.738,-6.073,1.950,2.754,-0.136,0.737,0.655,-3.174,2.045,1.099,86.667,16612.000,1.000
11.088,6.556,9.653,-125.610,26.023,17.099,27.079,12.829,-0.134,0.738,0.654,-2.960,1.953,1.007,86.667,16613.000,1.000
21.070,8.636,18.588,-64.434,53.788,38.977,51.088,20.998,-0.135,0.739,0.650,-2.930,1.862,1.038,86.667,16614.000,1.000
25.813,7.335,23.370,-9.857,73.474,54.300,68.177,25.184,-0.135,0.741,0.651,-2.716,1.923,1.007,86.667,16615.000,1.000
26.219,4.127,24.014,33.816,84.502,63.001,77.835,26.224,-0.135,0.741,0.653,-2.747,1.862,1.007,86.667,16616.000,1.000
24.020,0.864,21.983,67.619,89.409,67.209,81.778,25.866,-0.136,0.742,0.654,-2.838,1.831,1.099,86.667,16617.000,1.000
19.145,-2.165,18.054,88.516,87.943,66.526,79.277,24.273,-0.137,0.744,0.655,-2.747,1.831,1.099,86.667,16618.000,1.000
10.491,-5.863,12.223,88.682,76.948,58.280,67.749,20.323,-0.136,0.747,0.656,-2.808,1.617,1.099,86.667,16619.000,1.000
-1.074,-10.352,5.302,65.209,56.044,42.366,47.874,14.050,-0.136,0.746,0.655,-2.991,1.648,1.160,86.667,16620.000,1.000
-11.956,-14.279,-0.534,27.090,31.006,23.818,25.939,7.638,-0.135,0.744,0.651,-2.991,1.465,1.190,86.667,16621.000,1.000
-18.842,-16.306,-3.536,-10.842,9.647,9.013,9.268,3.294,-0.135,0.745,0.652,-3.082,1.495,1.160,86.667,16622.000,1.000
-21.381,-16.392,-4.157,-39.738,-4.551,0.256,0.180,1.008,-0.136,0.743,0.651,-3.174,1.526,1.251,86.667,16623.000,1.000
-20.862,-14.878,-3.910,-58.974,-12.524,-3.881,-3.536,-0.256,-0.136,0.743,0.652,-3.235,1.556,1.434,86.667,16624.000,1.000
-17.159,-10.955,-2.629,-67.276,-14.045,-3.393,-2.767,0.198,-0.136,0.742,0.655,-3.204,1.434,1.373,86.667,16625.000,1.000
-8.542,-3.260,1.905,-56.863,-5.246,5.234,5.536,4.736,-0.137,0.743,0.652,-3.235,1.465,1.434,86.667,16626.000,1.000
5.204,7.818,11.185,-20.146,16.637,24.610,24.006,14.386,-0.136,0.744,0.656,-3.357,1.251,1.434,86.667,16627.000,1.000
20.438,19.031,23.336,38.802,47.263,51.012,49.224,26.636,-0.136,0.745,0.654,-3.357,1.343,1.526,86.667,16628.000,1.000
31.337,26.012,33.740,103.069,76.041,75.061,72.243,36.587,-0.136,0.746,0.652,-3.479,1.373,1.648,86.667,16629.000,1.000
34.007,26.237,38.282,154.745,93.593,88.304,85.113,40.307,-0.135,0.745,0.654,-3.571,1.343,1.770,86.667,16630.000,1.000
28.616,20.185,35.727,186.394,97.458,88.529,85.917,36.999,-0.136,0.745,0.653,-3.540,1.251,1.831,86.667,16631.000,1.000
17.873,10.020,27.303,200.046,90.413,78.729,77.280,28.383,-0.136,0.744,0.657,-3.571,1.160,1.740,86.667,16632.000,1.000
4.557,-1.923,15.129,197.994,75.184,62.506,61.787,16.875,-0.136,0.740,0.654,-3.632,1.099,1.831,86.667,16633.000,1.000
-8.855,-13.073,1.750,179.186,53.095,42.184,40.804,4.923,-0.138,0.741,0.653,-3.601,1.099,1.862,86.667,16634.000,1.000
-19.135,-20.107,-9.378,145.364,27.596,20.995,17.379,-4.477,-0.138,0.740,0.654,-3.632,1.038,1.801,86.667,16635.000,1.000
-22.968,-20.147,-14.622,106.130,5.795,4.259,-2.599,-8.283,-0.138,0.742,0.655,-3.601,1.068,1.831,86.667,16636.000,1.000
-19.687,-13.200,-12.651,73.412,-6.254,-3.997,-14.288,-5.673,-0.137,0.740,0.657,-3.601,0.977,1.953,86.667,16637.000,1.000
-12.501,-2.846,-5.988,51.671,-9.002,-4.969,-18.157,0.567,-0.133,0.740,0.656,-3.540,1.038,2.045,86.667,16638.000,1.000
-5.817,6.239,0.953,37.199,-7.925,-3.556,-18.453,5.981,-0.132,0.741,0.652,-3.448,1.007,2.167,86.667,16639.000,1.000
-1.218,11.673,5.709,27.829,-6.277,-2.334,-17.192,8.112,-0.132,0.739,0.652,-3.387,1.038,2.136,86.667,16640.000,1.000
3.336,14.233,9.225,29.851,-1.233,1.441,-11.387,8.005,-0.133,0.738,0.653,-3.174,1.038,2.197,86.667,16641.000,1.000
10.156,15.677,13.420,51.936,11.564,11.793,2.555,8.160,-0.134,0.737,0.652,-3.113,0.946,2.106,86.667,16642.000,1.000
18.455,16.475,18.244,93.279,31.022,28.063,22.834,9.627,-0.135,0.739,0.655,-3.082,0.854,2.136,86.667,16643.000,1.000
25.052,16.162,21.956,141.550,50.380,44.710,42.602,11.629,-0.136,0.739,0.657,-2.991,0.885,2.106,86.667,16644.000,1.000
27.761,15.105,23.806,183.521,63.888,56.923,56.220,13.586,-0.135,0.739,0.653,-2.899,0.793,2.045,86.667,16645.000,1.000
26.771,14.549,25.003,214.526,71.325,64.369,63.217,16.036,-0.133,0.740,0.654,-2.869,0.702,1.923,86.667,16646.000,1.000
22.674,14.696,26.423,235.310,74.624,68.252,65.255,18.789,-0.131,0.743,0.656,-2.899,0.732,1.770,86.667,16647.000,1.000
14.616,13.666,26.399,242.727,72.085,66.564,61.125,19.301,-0.132,0.741,0.654,-2.747,0.763,1.801,86.667,16648.000,1.000
1.540,9.079,21.934,228.829,59.026,55.026,47.304,14.425,-0.133,0.741,0.655,-2.716,0.763,1.740,86.667,16649.000,1.000
-15.102,0.587,12.075,190.613,34.491,33.007,23.624,3.911,-0.131,0.741,0.656,-2.747,0.885,1.862,86.667,16650.000,1.000
-31.006,-9.495,-0.520,137.310,4.990,6.590,-3.707,-8.524,-0.133,0.742,0.659,-2.808,0.916,1.892,86.667,16651.000,1.000
-41.871,-18.095,-11.581,84.574,-20.189,-15.680,-26.326,-18.024,-0.131,0.743,0.654,-2.686,0.763,1.892,86.667,16652.000,1.000
-46.170,-23.510,-18.444,42.291,-36.427,-29.429,-40.175,-22.202,-0.129,0.742,0.653,-2.655,0.732,1.984,86.667,16653.000,1.000
-44.727,-25.456,-20.785,11.228,-44.829,-35.504,-46.254,-21.630,-0.125,0.742,0.652,-2.747,0.854,2.075,86.667,16654.000,1.000
-38.365,-23.795,-18.905,-8.732,-46.671,-35.260,-45.769,-17.518,-0.125,0.744,0.651,-2.686,1.007,2.258,86.667,16655.000,1.000
-27.298,-18.262,-12.823,-11.973,-39.852,-27.526,-37.238,-10.332,-0.125,0.742,0.652,-2.747,1.129,2.380,86.667,16656.000,1.000
-12.991,-9.607,-3.429,7.616,-22.435,-11.468,-19.732,-0.909,-0.127,0.742,0.652,-2.686,1.282,2.472,86.667,16657.000,1.000
0.642,-0.344,6.515,46.462,1.942,9.280,2.583,8.286,-0.127,0.742,0.650,-2.533,1.404,2.441,86.667,16658.000,1.000
9.246,6.407,13.653,90.729,24.946,27.805,21.803,14.282,-0.130,0.743,0.654,-2.533,1.373,2.472,86.667,16659.000,1.000
11.478,9.122,16.546,127.301,40.357,39.547,32.787,16.054,-0.132,0.740,0.655,-2.625,1.404,2.563,86.667,16660.000,1.000
9.584,8.477,16.303,152.513,48.064,45.066,36.511,14.984,-0.134,0.740,0.650,-2.563,1.404,2.594,86.667,16661.000,1.000
6.335,5.765,14.478,168.212,50.382,46.492,36.153,12.573,-0.135,0.739,0.652,-2.411,1.404,2.472,86.667,16662.000,1.000
2.253,1.409,10.969,172.075,46.414,42.800,31.584,8.437,-0.134,0.739,0.649,-2.319,1.251,2.411,86.667,16663.000,1.000
-3.567,-4.484,4.670,156.430,32.624,30.550,19.761,1.291,-0.131,0.740,0.648,-2.258,1.404,2.380,86.667,16664.000,1.000
-10.524,-10.562,-4.004,117.978,9.082,9.445,0.444,-8.185,-0.130,0.744,0.649,-2.319,1.404,2.228,86.667,16665.000,1.000
-15.737,-14.286,-12.258,65.309,-17.385,-14.758,-20.782,-16.588,-0.131,0.745,0.650,-2.228,1.373,2.319,86.667,16666.000,1.000
-16.880,-14.117,-17.227,13.207,-38.295,-34.534,-36.925,-20.774,-0.133,0.746,0.650,-2.350,1.282,2.167,86.667,16667.000,1.000
-14.847,-11.148,-18.611,-29.391,-50.730,-46.845,-45.895,-20.930,-0.134,0.748,0.651,-2.472,1.221,2.045,86.667,16668.000,1.000
-12.364,-7.932,-18.292,-62.260,-57.415,-53.435,-50.394,-19.725,-0.132,0.750,0.653,-2.502,1.160,2.075,86.667,16669.000,1.000
-10.138,-5.666,-17.510,-85.114,-60.075,-55.494,-51.867,-18.708,-0.132,0.750,0.652,-2.594,1.190,2.045,86.667,16670.000,1.000
-5.630,-3.006,-15.210,-90.768,-55.397,-50.444,-46.979,-16.572,-0.131,0.750,0.652,-2.686,1.099,2.014,86.667,16671.000,1.000
3.603,1.909,-9.757,-71.082,-39.346,-35.521,-31.746,-11.342,-0.131,0.750,0.649,-2.686,1.038,1.984,86.667,16672.000,1.000
15.988,8.745,-1.905,-28.824,-14.255,-13.561,-8.141,-3.621,-0.131,0.752,0.650,-2.838,1.129,2.075,86.667,16673.000,1.000
26.623,15.255,5.275,20.629,11.149,7.280,15.791,3.561,-0.127,0.751,0.651,-2.930,1.129,2.106,86.667,16674.000,1.000
31.744,19.855,9.545,61.234,29.275,20.406,32.807,8.093,-0.126,0.753,0.647,-2.869,1.251,2.106,86.667,16675.000,1.000
31.254,22.527,11.147,87.345,38.961,25.572,41.499,10.471,-0.125,0.753,0.653,-3.021,1.373,2.106,86.667,16676.000,1.000
26.855,23.244,10.975,101.170,42.346,25.940,43.821,11.729,-0.127,0.754,0.652,-3.204,1.404,2.197,86.667,16677.000,1.000
19.207,20.769,8.358,102.316,38.722,22.164,39.688,10.946,-0.125,0.752,0.650,-3.174,1.434,2.350,86.667,16678.000,1.000
8.002,13.758,1.596,84.762,24.307,11.518,26.432,5.901,-0.125,0.749,0.651,-3.143,1.617,2.441,86.667,16679.000,1.000
-5.543,3.010,-9.354,45.578,-1.507,-7.091,3.895,-3.836,-0.127,0.747,0.656,-3.113,1.648,2.563,86.667,16680.000,1.000
-17.716,-8.050,-21.482,-6.989,-32.065,-29.272,-22.092,-15.305,-0.126,0.745,0.655,-3.143,1.678,2.625,86.667,16681.000,1.000
-24.823,-15.827,-30.775,-57.986,-57.709,-47.971,-43.344,-24.336,-0.127,0.745,0.653,-3.052,1.740,2.655,86.667,16682.000,1.000
-26.085,-19.146,-35.321,-97.566,-73.323,-59.348,-55.807,-28.874,-0.128,0.742,0.653,-3.113,1.801,2.808,86.667,16683.000,1.000
-22.973,-18.789,-35.588,-124.995,-79.724,-63.983,-60.704,-29.362,-0.131,0.739,0.654,-2.991,1.740,2.869,86.667,16684.000,1.000
-16.201,-15.090,-31.989,-140.843,-78.198,-62.521,-59.581,-26.329,-0.131,0.739,0.653,-2.838,1.770,2.930,86.667,16685.000,1.000
-4.965,-7.407,-23.719,-139.840,-66.848,-52.856,-50.867,-19.278,-0.131,0.739,0.653,-2.655,1.709,3.021,86.667,16686.000,1.000
10.278,3.601,-10.936,-115.724,-44.379,-33.644,-33.041,-8.766,-0.131,0.740,0.655,-2.441,1.648,2.899,86.667,16687.000,1.000
25.663,14.499,3.054,-71.918,-15.636,-9.148,-9.678,1.821,-0.131,0.742,0.654,-2.258,1.556,2.869,86.667,16688.000,1.000
36.119,21.269,13.474,-22.658,9.985,12.299,11.513,8.268,-0.134,0.742,0.653,-2.136,1.495,2.808,86.667,16689.000,1.000
39.527,22.680,17.990,18.204,26.245,25.150,25.165,9.161,-0.131,0.743,0.653,-2.136,1.312,2.655,86.667,16690.000,1.000
37.651,20.592,18.048,46.719,34.219,30.254,31.908,6.651,-0.131,0.743,0.656,-2.136,1.373,2.563,86.667,16691.000,1.000
33.072,17.141,16.256,65.366,37.898,31.056,34.749,3.622,-0.131,0.741,0.654,-2.075,1.251,2.502,86.667,16692.000,1.000
26.307,12.577,13.391,72.874,37.374,27.972,33.439,0.836,-0.130,0.740,0.652,-1.984,1.160,2.380,86.667,16693.000,1.000
16.568,6.239,8.548,62.059,28.578,18.334,24.485,-2.815,-0.129,0.742,0.651,-1.831,1.160,2.289,86.667,16694.000,1.000
4.609,-1.237,1.578,28.957,9.644,1.473,6.697,-7.929,-0.127,0.743,0.652,-1.617,1.129,2.319,86.667,16695.000,1.000
-6.396,-7.695,-5.743,-19.040,-14.696,-18.241,-15.237,-13.405,-0.126,0.744,0.651,-1.526,1.099,2.289,86.667,16696.000,1.000
-13.057,-11.366,-11.118,-67.256,-36.470,-34.515,-33.984,-17.593,-0.127,0.745,0.651,-1.526,1.068,2.350,86.667,16697.000,1.000
-14.354,-12.334,-13.759,-105.148,-51.147,-44.399,-45.587,-19.963,-0.124,0.744,0.650,-1.465,1.129,2.380,86.667,16698.000,1.000
-11.583,-11.793,-14.481,-130.750,-59.146,-49.017,-50.780,-21.016,-0.126,0.742,0.649,-1.404,1.068,2.441,86.667,16699.000,1.000
-5.916,-9.976,-13.563,-143.709,-60.838,-49.085,-50.469,-20.485,-0.125,0.743,0.648,-1.373,1.038,2.533,86.667,16700.000,1.000
2.691,-5.783,-9.585,-138.547,-53.084,-42.010,-42.512,-16.714,-0.124,0.747,0.647,-1.343,1.221,2.594,86.667,16701.000,1.000
13.377,0.875,-1.652,-109.420,-33.262,-25.510,-25.134,-8.993,-0.127,0.747,0.649,-1.129,1.221,2.502,86.667,16702.000,1.000
22.609,7.406,8.052,-60.393,-5.317,-2.903,-2.080,0.231,-0.127,0.748,0.648,-1.129,1.190,2.563,86.667,16703.000,1.000
26.411,10.427,15.507,-6.248,21.322,17.911,18.579,7.015,-0.127,0.747,0.646,-1.190,1.160,2.472,86.667,16704.000,1.000
24.143,8.955,18.472,38.577,39.300,31.152,31.202,9.724,-0.127,0.749,0.647,-1.160,1.190,2.472,86.667,16705.000,1.000
18.820,4.967,17.903,69.468,48.042,37.118,36.346,10.046,-0.125,0.747,0.646,-1.190,1.068,2.533,86.667,16706.000,1.000
13.421,0.849,15.730,88.558,50.305,38.773,37.090,9.995,-0.127,0.746,0.647,-1.160,1.068,2.533,86.667,16707.000,1.000
7.696,-2.978,12.085,94.815,45.986,36.074,33.306,8.912,-0.128,0.745,0.645,-1.190,1.160,2.502,86.667,16708.000,1.000
-0.614,-7.430,5.631,81.912,31.974,25.948,21.813,4.439,-0.127,0.745,0.645,-1.282,1.007,2.472,86.667,16709.000,1.000
-11.811,-12.342,-3.540,47.402,8.343,7.845,2.268,-3.832,-0.128,0.745,0.642,-1.312,1.068,2.411,86.667,16710.000,1.000
-22.685,-15.793,-12.559,0.352,-18.031,-12.952,-19.504,-12.824,-0.127,0.745,0.642,-1.373,1.007,2.380,86.667,16711.000,1.000
-29.337,-16.089,-18.104,-44.005,-38.215,-29.127,-35.720,-18.580,-0.129,0.745,0.644,-1.373,0.946,2.350,86.667,16712.000,1.000
-30.763,-13.756,-19.504,-76.420,-48.676,-37.574,-43.183,-19.774,-0.130,0.744,0.642,-1.465,0.885,2.167,86.667,16713.000,1.000
-28.747,-10.872,-18.591,-97.283,-52.071,-40.238,-43.975,-17.928,-0.128,0.745,0.644,-1.465,0.824,2.075,86.667,16714.000,1.000
-24.674,-8.590,-16.703,-108.311,-50.957,-39.089,-40.188,-14.611,-0.128,0.746,0.645,-1.587,0.824,2.045,86.667,16715.000,1.000
-17.929,-6.130,-13.063,-104.938,-43.416,-32.587,-30.417,-9.627,-0.126,0.746,0.643,-1.617,0.732,2.014,86.667,16716.000,1.000
-8.003,-2.534,-6.699,-80.702,-26.542,-18.522,-12.850,-2.359,-0.127,0.747,0.641,-1.740,0.732,1.953,86.667,16717.000,1.000
2.850,1.145,0.915,-37.831,-2.735,0.945,9.551,6.020,-0.125,0.748,0.642,-1.740,0.641,1.831,86.667,16718.000,1.000
10.473,2.313,6.352,10.967,20.313,19.431,29.475,12.814,-0.126,0.748,0.644,-1.801,0.610,1.678,86.667,16719.000,1.000
12.615,-0.194,7.660,52.831,36.406,31.965,41.421,16.461,-0.126,0.747,0.642,-1.801,0.519,1.709,86.667,16720.000,1.000
10.745,-4.551,6.316,83.972,45.518,38.723,45.806,17.909,-0.125,0.747,0.643,-1.892,0.519,1.678,86.667,16721.000,1.000
7.522,-8.024,5.051,106.309,50.381,42.017,45.828,18.685,-0.125,0.747,0.640,-1.923,0.519,1.648,86.667,16722.000,1.000
3.595,-9.707,4.474,117.452,50.277,41.149,41.777,18.470,-0.123,0.749,0.642,-1.984,0.549,1.801,86.667,16723.000,1.000
-1.976,-10.383,3.083,109.183,41.148,32.852,30.941,15.870,-0.123,0.749,0.645,-2.075,0.580,1.740,86.667,16724.000,1.000
-8.853,-10.455,0.117,77.571,22.080,16.757,13.048,11.114,-0.126,0.749,0.644,-2.258,0.671,1.678,86.667,16725.000,1.000
-14.673,-9.432,-3.287,30.942,-1.165,-2.152,-6.880,6.369,-0.125,0.749,0.643,-2.197,0.702,1.709,86.667,16726.000,1.000
-17.571,-7.508,-5.994,-15.667,-20.817,-17.801,-22.606,3.184,-0.126,0.747,0.642,-2.319,0.702,1.770,86.667,16727.000,1.000
-18.220,-6.301,-8.516,-52.694,-33.830,-28.223,-32.178,0.898,-0.124,0.747,0.644,-2.258,0.641,1.801,86.667,16728.000,1.000
-18.372,-7.048,-11.763,-79.420,-41.920,-34.876,-37.617,-1.734,-0.125,0.747,0.641,-2.441,0.732,1.831,86.667,16729.000,1.000
-17.835,-8.483,-14.595,-95.619,-45.515,-37.458,-39.571,-3.855,-0.124,0.747,0.646,-2.350,0.793,1.923,86.667,16730.000,1.000
-14.090,-7.530,-13.724,-94.680,-40.534,-31.827,-34.573,-2.440,-0.123,0.750,0.644,-2.411,0.946,2.014,86.667,16731.000,1.000
-5.510,-2.526,-6.836,-69.169,-23.117,-14.648,-19.196,4.546,-0.125,0.751,0.643,-2.380,0.793,2.045,86.667,16732.000,1.000
5.729,4.606,4.342,-22.227,3.551,10.763,3.936,15.227,-0.124,0.750,0.642,-2.350,0.793,2.014,86.667,16733.000,1.000
14.915,9.911,14.816,30.880,29.702,35.222,26.409,24.742,-0.126,0.749,0.643,-2.441,0.763,1.923,86.667,16734.000,1.000
18.856,11.030,20.348,74.404,46.883,50.808,40.861,29.204,-0.128,0.747,0.643,-2.533,0.885,1.862,86.667,16735.000,1.000
17.799,8.633,20.204,102.795,53.688,55.913,46.059,28.231,-0.130,0.746,0.644,-2.411,0.763,1.862,86.667,16736.000,1.000
13.354,4.481,16.035,118.063,52.941,52.929,44.510,23.617,-0.129,0.746,0.643,-2.563,0.763,1.709,86.667,16737.000,1.000
5.855,-0.682,9.332,119.524,45.392,43.033,36.950,16.674,-0.128,0.747,0.640,-2.563,0.824,1.740,86.667,16738.000,1.000
-5.179,-6.722,0.969,101.200,28.921,25.491,21.596,7.815,-0.128,0.747,0.642,-2.289,0.793,1.617,86.667,16739.000,1.000
-18.382,-12.442,-7.388,60.836,4.070,1.892,-1.052,-1.720,-0.126,0.749,0.643,-2.289,0.702,1.617,86.667,16740.000,1.000
-29.875,-15.654,-13.053,7.835,-22.445,-21.492,-25.098,-9.184,-0.127,0.751,0.643,-2.380,0.732,1.617,86.667,16741.000,1.000
-36.085,-15.286,-14.396,-41.855,-42.090,-37.659,-42.949,-12.346,-0.125,0.751,0.643,-2.472,0.702,1.465,86.667,16742.000,1.000
-36.501,-12.564,-12.494,-78.161,-51.498,-44.560,-51.435,-11.654,-0.125,0.751,0.642,-2.472,0.702,1.556,86.667,16743.000,1.000
-32.880,-9.455,-9.811,-101.028,-53.148,-45.123,-52.493,-9.403,-0.124,0.752,0.644,-2.533,0.793,1.434,86.667,16744.000,1.000
-26.220,-6.142,-7.180,-112.262,-49.377,-41.737,-47.995,-6.720,-0.125,0.753,0.646,-2.533,0.885,1.495,86.667,16745.000,1.000
-15.744,-0.869,-2.795,-107.555,-38.192,-32.618,-36.216,-2.244,-0.123,0.752,0.644,-2.625,0.977,1.556,86.667,16746.000,1.000
-1.555,7.270,5.094,-80.673,-16.939,-15.151,-15.220,5.549,-0.122,0.751,0.644,-2.777,1.068,1.587,86.667,16747.000,1.000
12.854,16.199,14.983,-34.591,11.126,8.124,11.352,15.239,-0.122,0.751,0.637,-2.777,1.129,1.648,86.667,16748.000,1.000
22.525,22.569,22.939,16.512,37.105,29.573,34.895,23.029,-0.123,0.751,0.639,-2.838,1.099,1.770,86.667,16749.000,1.000
25.426,25.085,26.528,58.318,53.958,43.102,48.965,26.476,-0.122,0.751,0.644,-2.869,1.160,1.770,86.667,16750.000,1.000
23.639,25.214,26.704,86.386,61.534,48.636,53.817,26.390,-0.122,0.752,0.640,-2.960,1.251,1.709,86.667,16751.000,1.000
20.041,24.817,25.599,103.012,63.127,49.069,52.987,24.703,-0.122,0.751,0.642,-2.960,1.282,1.740,86.667,16752.000,1.000
14.935,23.904,23.431,106.935,58.912,44.593,47.140,21.496,-0.123,0.751,0.641,-3.143,1.373,1.801,86.667,16753.000,1.000
6.810,21.200,18.614,91.159,45.492,32.442,33.618,15.207,-0.123,0.751,0.642,-3.143,1.373,1.831,86.667,16754.000,1.000
-4.036,16.558,10.790,52.654,22.289,12.362,12.164,5.669,-0.124,0.748,0.644,-3.387,1.312,1.801,86.667,16755.000,1.000
-14.048,11.768,2.390,0.602,-4.408,-10.051,-11.417,-4.356,-0.124,0.748,0.643,-3.448,1.312,1.740,86.667,16756.000,1.000
-19.126,8.775,-3.439,-48.728,-25.781,-27.162,-29.097,-11.322,-0.126,0.748,0.647,-3.418,1.373,1.678,86.667,16757.000,1.000
-18.147,7.750,-5.749,-84.484,-37.792,-35.625,-37.289,-13.991,-0.125,0.748,0.643,-3.418,1.373,1.648,86.667,16758.000,1.000
-13.275,7.294,-6.054,-106.015,-42.559,-37.645,-38.243,-13.904,-0.127,0.747,0.646,-3.510,1.282,1.526,86.667,16759.000,1.000
-6.967,6.512,-5.865,-115.425,-42.734,-36.083,-34.980,-12.935,-0.128,0.748,0.646,-3.632,1.190,1.556,86.667,16760.000,1.000
0.367,6.311,-4.736,-109.407,-36.757,-30.109,-26.874,-11.123,-0.128,0.749,0.646,-3.693,1.160,1.373,86.667,16761.000,1.000
9.011,8.023,-1.481,-82.621,-21.724,-17.397,-11.994,-7.648,-0.128,0.749,0.645,-3.723,1.129,1.373,86.667,16762.000,1.000
17.499,11.357,3.426,-38.000,0.318,0.543,7.601,-3.095,-0.127,0.747,0.647,-3.662,0.946,1.343,86.667,16763.000,1.000
23.295,14.727,8.003,11.297,22.026,17.979,25.797,0.783,-0.125,0.745,0.645,-3.723,0.854,1.312,86.667,16764.000,1.000
25.377,16.979,10.942,51.954,37.048,30.056,37.799,3.173,-0.126,0.746,0.645,-3.601,0.885,1.221,86.667,16765.000,1.000
24.578,17.619,12.304,79.677,44.409,36.177,43.438,4.634,-0.125,0.747,0.645,-3.662,0.824,1.160,86.667,16766.000,1.000
21.415,15.772,12.059,96.372,45.826,37.555,44.361,5.318,-0.126,0.746,0.647,-3.693,0.824,0.977,86.667,16767.000,1.000
14.874,10.182,8.990,100.614,40.611,33.211,39.634,3.825,-0.126,0.747,0.648,-3.601,0.824,0.916,86.667,16768.000,1.000
4.011,0.700,1.817,85.546,25.744,20.501,26.298,-1.377,-0.126,0.745,0.649,-3.510,0.793,0.916,86.667,16769.000,1.000
-9.554,-10.499,-8.586,48.028,1.403,-0.111,4.636,-9.530,-0.127,0.744,0.648,-3.479,0.671,1.007,86.667,16770.000,1.000
-21.649,-19.725,-18.774,-3.266,-25.804,-22.660,-19.106,-17.362,-0.125,0.743,0.647,-3.387,0.519,0.946,86.667,16771.000,1.000
-28.569,-24.219,-25.177,-52.555,-47.105,-39.669,-36.942,-21.752,-0.126,0.743,0.646,-3.235,0.488,0.854,86.667,16772.000,1.000
-29.612,-23.727,-26.706,-88.954,-58.324,-47.920,-45.318,-22.144,-0.127,0.743,0.645,-3.204,0.488,0.885,86.667,16773.000,1.000
-26.173,-19.552,-24.456,-110.926,-60.760,-48.997,-45.750,-19.891,-0.128,0.743,0.649,-2.991,0.488,0.793,86.667,16774.000,1.000
-19.080,-12.650,-19.375,-119.339,-56.070,-44.697,-40.113,-15.805,-0.129,0.742,0.648,-2.869,0.397,0.732,86.667,16775.000,1.000
-8.140,-3.511,-11.372,-110.464,-42.957,-33.992,-27.569,-9.470,-0.128,0.741,0.652,-2.899,0.427,0.702,86.667,16776.000,1.000
5.331,6.101,-1.122,-79.722,-20.563,-15.919,-7.477,-1.308,-0.127,0.741,0.651,-2.899,0.366,0.732,86.667,16777.000,1.000
16.984,12.584,8.277,-31.386,6.408,5.749,15.992,5.814,-0.127,0.742,0.649,-2.686,0.214,0.732,86.667,16778.000,1.000
22.231,13.039,13.095,20.189,29.150,23.568,35.029,8.652,-0.128,0.742,0.649,-2.533,0.183,0.732,86.667,16779.000,1.000
20.520,8.334,12.670,61.338,42.240,33.024,44.834,7.279,-0.128,0.743,0.647,-2.441,0.122,0.763,86.667,16780.000,1.000
15.502,2.526,10.108,88.679,47.654,36.158,47.215,5.279,-0.129,0.746,0.651,-2.411,0.031,0.732,86.667,16781.000,1.000
10.626,-1.144,8.626,105.468,49.884,37.227,46.249,5.611,-0.127,0.745,0.652,-2.258,-0.031,0.702,86.667,16782.000,1.000
5.593,-2.963,7.971,110.746,48.602,36.185,41.854,7.105,-0.126,0.748,0.652,-2.411,-0.092,0.702,86.667,16783.000,1.000
-2.042,-5.256,5.213,97.065,38.722,28.632,29.993,5.798,-0.127,0.749,0.651,-2.380,-0.031,0.641,86.667,16784.000,1.000
-12.433,-9.001,-1.294,60.609,17.907,12.195,9.244,-0.487,-0.126,0.747,0.651,-2.228,-0.031,0.580,86.667,16785.000,1.000
-21.942,-12.657,-9.498,10.202,-8.261,-8.861,-14.925,-9.494,-0.129,0.747,0.648,-2.319,-0.153,0.580,86.667,16786.000,1.000
-26.411,-14.155,-15.429,-37.424,-30.248,-26.642,-33.963,-16.633,-0.128,0.748,0.644,-2.380,-0.183,0.641,86.667,16787.000,1.000
-25.111,-13.301,-17.018,-70.941,-42.866,-36.547,-43.596,-19.265,-0.127,0.749,0.647,-2.319,-0.244,0.519,86.667,16788.000,1.000
-20.683,-11.669,-15.431,-90.131,-47.785,-39.680,-45.832,-18.316,-0.126,0.750,0.647,-2.411,-0.244,0.580,86.667,16789.000,1.000
-15.527,-10.361,-12.606,-98.080,-47.876,-38.403,-43.757,-15.862,-0.128,0.749,0.648,-2.411,-0.336,0.549,86.667,16790.000,1.000
-9.423,-8.699,-8.648,-91.880,-41.774,-31.749,-36.650,-12.362,-0.128,0.748,0.646,-2.502,-0.275,0.519,86.667,16791.000,1.000
-1.356,-5.646,-2.747,-65.398,-26.384,-17.399,-22.171,-7.169,-0.128,0.748,0.647,-2.533,-0.275,0.549,86.667,16792.000,1.000
7.435,-1.782,4.178,-20.337,-3.516,2.783,-2.144,-0.919,-0.128,0.745,0.648,-2.502,-0.305,0.549,86.667,16793.000,1.000
13.924,1.190,9.568,30.467,19.261,22.143,16.852,4.238,-0.128,0.745,0.645,-2.594,-0.275,0.519,86.667,16794.000,1.000
16.534,2.535,11.945,72.782,35.067,34.880,29.163,6.826,-0.129,0.744,0.642,-2.533,-0.366,0.458,86.667,16795.000,1.000
16.302,2.900,12.052,101.110,42.804,40.229,34.163,7.185,-0.129,0.744,0.646,-2.472,-0.336,0.397,86.667,16796.000,1.000
14.642,2.765,11.053,116.880,44.722,40.202,33.827,6.154,-0.127,0.742,0.647,-2.441,-0.275,0.336,86.667,16797.000,1.000
11.163,1.478,8.643,119.170,40.745,34.971,27.952,3.566,-0.129,0.743,0.650,-2.411,-0.244,0.275,86.667,16798.000,1.000
4.466,-1.873,3.529,102.022,27.783,22.534,14.011,-1.325,-0.126,0.744,0.648,-2.289,-0.244,0.305,86.667,16799.000,1.000
-5.017,-6.811,-4.242,62.966,5.327,3.142,-7.799,-8.001,-0.128,0.745,0.649,-2.350,-0.336,0.397,86.667,16800.000,1.000
-13.769,-11.035,-11.969,11.333,-20.277,-17.646,-31.184,-13.893,-0.129,0.746,0.649,-2.380,-0.336,0.366,86.667,16801.000,1.000
-17.771,-12.205,-16.150,-36.222,-39.645,-32.322,-47.651,-16.259,-0.128,0.747,0.648,-2.350,-0.275,0.336,86.667,16802.000,1.000
-16.225,-10.262,-15.835,-68.860,-48.374,-37.870,-53.673,-14.915,-0.129,0.749,0.649,-2.380,-0.366,0.214,86.667,16803.000,1.000
-11.517,-7.150,-13.062,-87.019,-49.067,-37.037,-52.065,-11.996,-0.130,0.749,0.649,-2.411,-0.397,0.336,86.667,16804.000,1.000
-5.386,-3.935,-9.365,-93.933,-44.977,-32.631,-45.952,-8.487,-0.131,0.748,0.651,-2.441,-0.336,0.275,86.667,16805.000,1.000
3.185,0.486,-3.454,-86.198,-34.561,-22.942,-34.001,-2.492,-0.131,0.748,0.649,-2.472,-0.488,0.275,86.667,16806.000,1.000
15.259,6.984,6.246,-57.265,-14.765,-5.010,-13.660,7.585,-0.130,0.750,0.650,-2.533,-0.488,0.183,86.667,16807.000,1.000
28.497,13.717,17.885,-9.157,11.822,18.798,12.420,19.159,-0.129,0.749,0.648,-2.625,-0.458,0.244,86.667,16808.000,1.000
37.969,17.282,26.634,43.945,36.252,40.162,35.915,26.495,-0.130,0.749,0.646,-2.563,-0.458,0.366,86.667,16809.000,1.000
40.364,16.015,28.802,85.959,50.540,51.524,49.492,25.778,-0.130,0.748,0.648,-2.472,-0.397,0.305,86.667,16810.000,1.000
36.522,11.444,24.776,110.704,54.060,52.125,52.571,18.376,-0.128,0.747,0.648,-2.502,-0.366,0.366,86.667,16811.000,1.000
29.426,6.384,17.643,121.023,51.176,46.182,49.257,8.882,-0.128,0.747,0.646,-2.502,-0.336,0.275,86.667,16812.000,1.000
20.668,2.163,9.617,118.246,43.927,36.295,41.765,0.680,-0.129,0.749,0.649,-2.533,-0.336,0.397,86.667,16813.000,1.000
10.064,-1.718,0.826,97.852,30.022,21.201,28.488,-5.818,-0.128,0.748,0.651,-2.594,-0.336,0.458,86.667,16814.000,1.000
-1.637,-5.589,-8.593,57.597,8.541,0.299,8.868,-11.100,-0.129,0.746,0.650,-2.563,-0.397,0.488,86.667,16815.000,1.000
-11.481,-8.444,-16.782,5.953,-15.343,-22.241,-12.537,-14.341,-0.130,0.744,0.650,-2.472,-0.336,0.488,86.667,16816.000,1.000
-16.629,-9.207,-21.500,-41.921,-33.722,-39.919,-28.973,-14.330,-0.131,0.745,0.649,-2.472,-0.244,0.549,86.667,16817.000,1.000
-17.072,-8.280,-22.354,-75.996,-42.993,-49.512,-37.454,-11.690,-0.131,0.745,0.652,-2.472,-0.305,0.641,86.667,16818.000,1.000
-14.877,-6.757,-20.573,-96.057,-45.245,-52.326,-39.764,-8.509,-0.130,0.746,0.649,-2.411,-0.183,0.702,86.667,16819.000,1.000
-10.991,-4.438,-16.783,-104.379,-42.719,-49.934,-37.582,-5.543,-0.131,0.746,0.650,-2.411,-0.183,0.641,86.667,16820.000,1.000
-4.225,0.124,-10.170,-97.679,-33.495,-40.880,-29.009,-1.129,-0.132,0.749,0.649,-2.228,-0.122,0.702,86.667,16821.000,1.000
6.029,7.237,-0.483,-70.354,-14.734,-23.357,-11.742,6.329,-0.131,0.747,0.647,-2.380,-0.153,0.763,86.667,16822.000,1.000
17.183,14.563,9.871,-25.000,10.899,-0.228,11.320,15.555,-0.131,0.747,0.648,-2.319,-0.214,0.671,86.667,16823.000,1.000
24.806,18.763,16.935,24.692,34.777,20.919,32.062,22.980,-0.130,0.748,0.648,-2.472,-0.122,0.519,86.667,16824.000,1.000
26.533,18.618,18.702,63.952,49.276,33.756,43.654,26.105,-0.130,0.747,0.646,-2.319,-0.214,0.519,86.667,16825.000,1.000
23.611,15.742,16.677,87.761,53.613,37.970,45.718,25.467,-0.131,0.746,0.647,-2.289,-0.153,0.488,86.667,16826.000,1.000
18.165,11.968,13.351,98.973,51.289,36.689,41.762,22.796,-0.129,0.747,0.647,-2.350,-0.183,0.488,86.667,16827.000,1.000
10.234,7.157,9.093,97.837,43.338,30.688,32.975,18.335,-0.126,0.748,0.649,-2.502,-0.153,0.458,86.667,16828.000,1.000
-1.121,0.404,2.635,78.758,27.245,17.856,17.382,11.266,-0.125,0.748,0.648,-2.502,-0.122,0.519,86.667,16829.000,1.000
-14.513,-7.522,-5.988,39.130,2.769,-1.654,-4.866,2.249,-0.126,0.749,0.647,-2.533,-0.092,0.549,86.667,16830.000,1.000
-25.749,-14.069,-14.219,-12.302,-24.000,-22.291,-28.048,-5.822,-0.127,0.749,0.647,-2.655,0.031,0.580,86.667,16831.000,1.000
-31.075,-17.088,-18.959,-59.685,-44.367,-36.692,-44.525,-10.034,-0.130,0.748,0.644,-2.747,-0.031,0.519,86.667,16832.000,1.000
-30.230,-16.678,-19.343,-92.314,-54.163,-41.862,-51.127,-10.084,-0.130,0.750,0.646,-2.747,0.061,0.519,86.667,16833.000,1.000
-25.765,-14.621,-16.979,-110.020,-55.554,-40.444,-50.396,-8.112,-0.131,0.749,0.647,-2.808,0.061,0.580,86.667,16834.000,1.000
-19.503,-11.988,-13.327,-115.862,-51.646,-35.661,-45.331,-5.764,-0.131,0.749,0.646,-2.899,0.031,0.549,86.667,16835.000,1.000
-10.655,-7.917,-7.661,-107.065,-41.344,-26.644,-34.782,-2.270,-0.132,0.747,0.647,-3.052,0.031,0.549,86.667,16836.000,1.000
1.911,-1.371,1.483,-77.439,-21.697,-10.525,-15.937,3.831,-0.132,0.747,0.647,-3.082,0.000,0.580,86.667,16837.000,1.000
16.475,6.561,13.333,-28.212,5.603,11.743,9.574,11.822,-0.133,0.747,0.646,-3.052,0.031,0.610,86.667,16838.000,1.000
28.979,13.248,24.616,28.056,33.028,34.106,34.687,18.873,-0.134,0.747,0.647,-3.082,0.000,0.671,86.667,16839.000,1.000
36.463,17.031,32.261,76.331,53.199,50.282,52.461,22.735,-0.133,0.746,0.649,-3.113,-0.031,0.763,86.667,16840.000,1.000
38.625,17.883,35.175,109.233,63.866,57.921,60.722,23.064,-0.133,0.747,0.650,-3.052,-0.122,0.763,86.667,16841.000,1.000
35.753,15.634,32.994,125.921,65.605,56.915,60.167,19.777,-0.134,0.748,0.650,-3.082,-0.214,0.793,86.667,16842.000,1.000
26.763,8.986,24.434,123.503,56.612,45.528,49.699,11.438,-0.134,0.749,0.651,-2.991,-0.305,0.824,86.667,16843.000,1.000
10.926,-2.723,8.610,95.394,33.337,21.406,26.855,-3.096,-0.135,0.750,0.652,-3.021,-0.305,0.854,86.667,16844.000,1.000
-8.724,-17.093,-11.877,40.989,-2.687,-12.755,-6.300,-21.462,-0.135,0.748,0.653,-3.052,-0.397,0.977,86.667,16845.000,1.000
-25.521,-29.107,-30.625,-26.392,-41.278,-46.993,-40.303,-37.671,-0.137,0.746,0.650,-3.143,-0.549,0.977,86.667,16846.000,1.000
-33.762,-34.562,-41.307,-85.816,-69.508,-70.015,-63.803,-46.163,-0.138,0.745,0.652,-3.082,-0.641,1.007,86.667,16847.000,1.000
-32.789,-32.976,-41.934,-123.444,-81.065,-77.293,-71.778,-45.751,-0.136,0.742,0.650,-3.021,-0.732,1.068,86.667,16848.000,1.000
-26.066,-26.943,-35.183,-138.860,-78.611,-72.354,-67.206,-39.311,-0.137,0.742,0.650,-2.930,-0.885,1.160,86.667,16849.000,1.000
-16.688,-18.920,-24.907,-137.138,-67.420,-60.572,-55.131,-30.070,-0.134,0.743,0.653,-2.716,-1.007,1.190,86.667,16850.000,1.000
-4.988,-9.516,-13.113,-118.810,-49.176,-43.607,-37.168,-19.096,-0.135,0.743,0.653,-2.563,-1.129,1.282,86.667,16851.000,1.000
8.998,0.873,-0.710,-81.486,-23.701,-21.074,-13.217,-6.673,-0.135,0.744,0.650,-2.411,-1.190,1.373,86.667,16852.000,1.000
22.269,10.057,10.078,-29.690,5.110,4.042,13.101,5.094,-0.134,0.744,0.649,-2.289,-1.251,1.526,86.667,16853.000,1.000
29.985,14.966,15.934,22.521,28.888,24.822,34.107,12.674,-0.135,0.744,0.651,-2.075,-1.251,1.404,86.667,16854.000,1.000
29.784,14.417,15.452,61.480,41.537,36.146,44.287,14.332,-0.137,0.746,0.652,-2.075,-1.221,1.312,86.667,16855.000,1.000
23.673,10.157,10.807,84.005,44.299,39.008,44.973,11.859,-0.138,0.745,0.654,-2.197,-1.282,1.282,86.667,16856.000,1.000
15.219,4.912,5.521,94.638,42.250,37.493,41.128,8.334,-0.138,0.745,0.655,-2.075,-1.495,1.190,86.667,16857.000,1.000
5.879,0.003,1.035,94.417,36.928,32.654,34.477,4.807,-0.135,0.745,0.652,-2.045,-1.678,1.221,86.667,16858.000,1.000
-4.888,-4.595,-3.620,77.260,25.098,21.832,22.261,0.234,-0.132,0.744,0.651,-1.862,-1.801,1.221,86.667,16859.000,1.000
-16.462,-8.481,-9.125,39.414,5.140,4.219,3.104,-5.753,-0.130,0.745,0.648,-1.831,-1.862,1.221,86.667,16860.000,1.000
-25.723,-10.325,-14.166,-11.132,-18.036,-15.420,-18.446,-11.453,-0.128,0.745,0.649,-1.770,-1.862,1.221,86.667,16861.000,1.000
-29.675,-9.462,-16.906,-58.635,-36.410,-30.238,-35.052,-14.869,-0.130,0.742,0.652,-1.740,-1.892,1.129,86.667,16862.000,1.000
-28.425,-7.089,-17.168,-92.183,-45.961,-37.333,-43.101,-15.858,-0.129,0.742,0.649,-1.617,-1.862,1.099,86.667,16863.000,1.000
-24.446,-5.035,-16.239,-111.147,-48.343,-38.623,-44.231,-15.645,-0.129,0.742,0.649,-1.678,-1.770,1.038,86.667,16864.000,1.000
-19.264,-3.569,-14.687,-118.008,-45.735,-36.020,-40.612,-14.532,-0.126,0.742,0.648,-1.770,-1.770,0.977,86.667,16865.000,1.000
-12.023,-1.014,-11.216,-109.720,-36.408,-27.734,-30.880,-11.090,-0.122,0.742,0.650,-1.617,-1.801,1.038,86.667,16866.000,1.000
-1.712,4.213,-4.349,-80.295,-17.447,-10.933,-12.547,-4.127,-0.117,0.743,0.646,-1.495,-1.740,1.190,86.667,16867.000,1.000
9.868,11.335,4.917,-31.658,8.807,12.465,12.149,4.927,-0.118,0.743,0.641,-1.404,-1.495,1.343,86.667,16868.000,1.000
18.517,17.456,13.102,22.491,33.819,34.904,35.348,12.499,-0.120,0.744,0.641,-1.282,-1.251,1.343,86.667,16869.000,1.000
21.343,20.148,17.338,66.428,49.679,49.126,49.771,16.044,-0.121,0.743,0.643,-1.404,-1.160,1.434,86.667,16870.000,1.000
19.006,19.168,17.653,93.724,55.141,53.570,54.245,16.061,-0.125,0.743,0.641,-1.373,-1.038,1.465,86.667,16871.000,1.000
13.772,15.504,15.740,106.347,53.456,50.914,51.795,14.515,-0.128,0.745,0.643,-1.343,-0.946,1.312,86.667,16872.000,1.000
6.467,9.716,12.432,105.068,46.046,42.939,43.893,12.082,-0.131,0.745,0.646,-1.312,-1.038,1.282,86.667,16873.000,1.000
-3.382,2.131,7.411,85.848,31.193,29.224,29.229,8.080,-0.130,0.747,0.642,-1.434,-0.946,1.160,86.667,16874.000,1.000
-14.829,-5.869,0.947,47.345,9.098,10.781,8.210,2.731,-0.130,0.748,0.644,-1.434,-1.129,1.068,86.667,16875.000,1.000
-24.661,-12.147,-5.480,-1.779,-14.655,-7.739,-14.036,-2.157,-0.127,0.748,0.641,-1.556,-0.977,1.007,86.667,16876.000,1.000
-30.018,-15.688,-10.598,-47.044,-32.726,-21.285,-30.996,-5.205,-0.128,0.748,0.643,-1.495,-1.007,0.885,86.667,16877.000,1.000
-30.893,-17.302,-14.344,-79.140,-42.072,-28.675,-40.105,-6.915,-0.129,0.749,0.641,-1.556,-0.885,0.793,86.667,16878.000,1.000
-29.072,-17.958,-16.756,-97.783,-44.476,-31.818,-43.011,-8.239,-0.128,0.750,0.643,-1.587,-1.007,0.732,86.667,16879.000,1.000
-25.047,-16.871,-16.368,-104.418,-41.313,-30.964,-40.830,-8.270,-0.127,0.752,0.644,-1.709,-0.916,0.458,86.667,16880.000,1.000
-17.249,-12.023,-10.869,-94.929,-30.253,-22.798,-31.363,-4.461,-0.129,0.753,0.642,-1.923,-1.007,0.366,86.667,16881.000,1.000
-5.019,-3.025,-0.150,-63.622,-9.104,-4.781,-12.646,4.272,-0.128,0.754,0.641,-2.014,-1.068,0.275,86.667,16882.000,1.000
8.549,7.157,11.909,-13.863,18.204,19.395,11.728,15.144,-0.128,0.754,0.642,-2.319,-1.160,0.183,86.667,16883.000,1.000
18.213,14.333,19.940,39.624,42.325,40.815,33.271,23.176,-0.126,0.757,0.641,-2.533,-1.099,0.061,86.667,16884.000,1.000
21.001,16.685,21.427,81.254,55.970,52.351,45.252,25.351,-0.125,0.757,0.640,-2.655,-1.068,0.183,86.667,16885.000,1.000
18.057,15.464,17.994,105.352,59.064,53.528,47.383,22.563,-0.126,0.756,0.642,-2.808,-0.946,0.183,86.667,16886.000,1.000
12.057,12.527,12.682,114.747,55.686,48.072,43.288,17.586,-0.124,0.755,0.640,-2.869,-0.854,0.183,86.667,16887.000,1.000
3.802,8.101,6.580,110.723,47.274,37.958,34.639,11.773,-0.124,0.755,0.642,-3.052,-0.824,0.244,86.667,16888.000,1.000
-7.586,1.402,-1.351,88.878,31.214,21.793,19.774,4.504,-0.123,0.753,0.643,-2.960,-0.702,0.366,86.667,16889.000,1.000
-21.258,-6.889,-11.287,46.893,6.634,-0.609,-1.577,-4.189,-0.124,0.750,0.642,-3.021,-0.671,0.427,86.667,16890.000,1.000
-33.125,-13.927,-20.643,-6.909,-20.892,-24.346,-24.468,-11.935,-0.126,0.751,0.644,-2.991,-0.549,0.458,86.667,16891.000,1.000
-38.749,-16.948,-25.921,-56.817,-42.560,-42.078,-41.578,-15.846,-0.127,0.749,0.647,-3.113,-0.488,0.610,86.667,16892.000,1.000
-36.952,-15.589,-25.847,-91.423,-53.498,-49.980,-49.226,-15.374,-0.128,0.747,0.646,-3.204,-0.519,0.702,86.667,16893.000,1.000
-29.832,-11.538,-21.950,-109.417,-55.010,-49.611,-48.941,-12.520,-0.130,0.746,0.646,-3.174,-0.488,0.793,86.667,16894.000,1.000
